time (s)	coil I (A)	last det (V)	int current (uC)
4968.801249	1.027346	0.251965	463.333160
4968.802153	0.622068	0.251965	1025.682495
4968.803037	0.087096	0.251965	1102.675293
4968.803986	0.082822	0.251965	1181.273682
4968.804885	0.082958	0.251965	1255.852661
4968.805784	0.082896	0.251965	1330.375732
4968.806703	0.082917	0.251965	1406.576904
4968.807627	0.082917	0.251965	1483.192627
4968.808535	0.082833	0.251965	1558.405273
4968.809435	0.082874	0.251965	1632.991455
4968.810376	0.082885	0.251965	1710.985840
4968.811277	0.082866	0.251965	1785.648315
4969.839048	1.001682	0.271313	435.731750
4969.839986	0.627374	0.271313	1024.208862
4969.840909	0.085660	0.271313	1103.273437
4969.841814	0.082749	0.271313	1178.161255
4969.842705	0.082841	0.271313	1251.972168
4969.843658	0.082885	0.271313	1330.961060
4969.844562	0.082855	0.271313	1405.862183
4969.845455	0.082848	0.271313	1479.845337
4969.846345	0.082841	0.271313	1553.573486
4969.847284	0.082881	0.271313	1631.398560
4969.848197	0.082892	0.271313	1707.078857
4969.849093	0.082819	0.271313	1781.284302
4970.907643	1.037725	0.246962	504.334167
4970.908563	0.550891	0.246962	1011.153992
4970.909481	0.085067	0.246962	1089.245605
4970.910369	0.082870	0.246962	1162.834106
4970.911319	0.082881	0.246962	1241.570923
4970.912212	0.082881	0.246962	1315.583496
4970.913100	0.082947	0.246962	1389.240234
4970.914019	0.082841	0.246962	1465.370728
4970.914946	0.082863	0.246962	1542.184326
4970.915848	0.082844	0.246962	1616.909790
4970.916740	0.082917	0.246962	1690.872192
4970.917674	0.082863	0.246962	1768.265869
4971.954659	1.027002	0.262338	470.366852
4971.955555	0.617377	0.262338	1023.536377
4971.956493	0.086865	0.262338	1105.015991
4971.957397	0.082896	0.262338	1179.953491
4971.958292	0.082793	0.262338	1254.053223
4971.959181	0.082892	0.262338	1327.744019
4971.960112	0.082888	0.262338	1404.912964
4971.961021	0.082855	0.262338	1480.228394
4971.961930	0.082848	0.262338	1555.537109
4971.962819	0.082906	0.262338	1629.240967
4971.963775	0.082896	0.262338	1708.489014
4971.964671	0.082778	0.262338	1782.658447
4973.009912	1.056497	0.256872	512.400818
4973.010839	0.538810	0.256872	1011.877441
4973.011740	0.085345	0.256872	1088.773682
4973.012629	0.082826	0.256872	1162.405884
4973.013595	0.082958	0.256872	1242.543091
4973.014498	0.082885	0.256872	1317.387817
4973.015391	0.082841	0.256872	1391.364502
4973.016311	0.082885	0.256872	1467.618286
4973.017226	0.082965	0.256872	1543.531372
4973.018128	0.082877	0.256872	1618.286621
4973.019024	0.082936	0.256872	1692.597046
4973.019956	0.082917	0.256872	1769.876099
4974.068186	1.006542	0.267684	448.917664
4974.069094	0.633267	0.267684	1023.923767
4974.069983	0.087257	0.267684	1101.495361
4974.070940	0.082830	0.267684	1180.763306
4974.071841	0.082837	0.267684	1255.399414
4974.072761	0.082877	0.267684	1331.646484
4974.073660	0.082885	0.267684	1406.159668
4974.074614	0.082881	0.267684	1485.228027
4974.075519	0.082921	0.267684	1560.271606
4974.076407	0.082866	0.267684	1633.856812
4974.077353	0.082870	0.267684	1712.251709
4974.078262	0.082888	0.267684	1787.597046
4975.115208	1.004652	0.259051	437.023682
4975.116160	0.613733	0.259051	1021.297363
4975.117084	0.085360	0.259051	1100.170166
4975.117994	0.082833	0.259051	1175.548462
4975.118887	0.082833	0.259051	1249.518555
4975.119826	0.082965	0.259051	1327.422729
4975.120739	0.082932	0.259051	1403.139771
4975.121644	0.082863	0.259051	1478.130371
4975.122534	0.082885	0.259051	1551.897583
4975.123478	0.082928	0.259051	1630.182007
4975.124384	0.082914	0.259051	1705.301880
4975.125272	0.082899	0.259051	1778.916382
4976.180687	1.012625	0.253838	446.567413
4976.181597	0.632882	0.253838	1022.490112
4976.182486	0.087239	0.253838	1100.045410
4976.183452	0.082950	0.253838	1180.175537
4976.184361	0.082928	0.253838	1255.557495
4976.185254	0.082958	0.253838	1329.638794
4976.186204	0.082954	0.253838	1408.445190
4976.187098	0.082991	0.253838	1482.638916
4976.188003	0.082877	0.253838	1557.642822
4976.188888	0.082906	0.253838	1631.015015
4976.189820	0.082928	0.253838	1708.304321
4976.190723	0.082950	0.253838	1783.208618
4977.225676	1.007688	0.256666	441.367310
4977.226643	0.584403	0.256666	1006.485046
4977.227558	0.085781	0.256666	1084.974854
4977.228454	0.082885	0.256666	1159.239380
4977.229350	0.082961	0.256666	1233.572754
4977.230302	0.082910	0.256666	1312.503174
4977.231212	0.082925	0.256666	1387.964722
4977.232103	0.082932	0.256666	1461.857300
4977.233034	0.082965	0.256666	1539.097778
4977.233941	0.082899	0.256666	1614.287354
4977.234839	0.082969	0.256666	1688.793335
4977.235726	0.082954	0.256666	1762.373657
4978.287576	1.028328	0.260702	465.832397
4978.288482	0.614886	0.260702	1022.919556
4978.289434	0.086235	0.260702	1105.015625
4978.290338	0.082936	0.260702	1179.989624
4978.291239	0.082983	0.260702	1254.757690
4978.292126	0.082888	0.260702	1328.279541
4978.293062	0.082991	0.260702	1405.958862
4978.293972	0.082932	0.260702	1481.427124
4978.294871	0.082976	0.260702	1556.022583
4978.295791	0.083005	0.260702	1632.387573
4978.296709	0.083053	0.260702	1708.630249
4978.297619	0.082892	0.260702	1784.061768
4979.337679	1.007585	0.270697	445.352753
4979.338571	0.647157	0.270697	1022.616821
4979.339514	0.086001	0.270697	1103.715698
4979.340428	0.082874	0.270697	1179.462158
4979.341333	0.082928	0.270697	1254.512451
4979.342233	0.082994	0.270697	1329.207397
4979.343181	0.082969	0.270697	1407.861816
4979.344088	0.082899	0.270697	1483.051392
4979.344979	0.082910	0.270697	1556.924316
4979.345919	0.083013	0.270697	1634.956299
4979.346816	0.083002	0.270697	1709.408813
4979.347721	0.082936	0.270697	1784.465698
4980.392397	1.010526	0.266068	445.641998
4980.393379	0.553414	0.266068	989.094849
4980.394279	0.085162	0.266068	1065.740967
4980.395204	0.082885	0.266068	1142.409180
4980.396089	0.082961	0.266068	1215.830078
4980.397027	0.083013	0.266068	1293.696045
4980.397932	0.082921	0.266068	1368.739624
4980.398825	0.082917	0.266068	1442.784912
4980.399748	0.082994	0.266068	1519.388672
4980.400677	0.082943	0.266068	1596.442871
4980.401576	0.082976	0.266068	1671.038330
4980.402468	0.082950	0.266068	1745.030151
4981.451724	1.001971	0.259905	437.861481
4981.452688	0.555395	0.259905	973.262695
4981.453604	0.085419	0.259905	1051.506226
4981.454504	0.082906	0.259905	1126.122070
4981.455421	0.082914	0.259905	1202.154053
4981.456345	0.082950	0.259905	1278.800293
4981.457254	0.082958	0.259905	1354.208862
4981.458157	0.082958	0.259905	1429.119751
4981.459096	0.082928	0.259905	1506.989624
4981.459998	0.082980	0.259905	1581.837402
4981.460899	0.082906	0.259905	1656.536133
4981.461782	0.082888	0.259905	1729.726440
4982.499791	1.009852	0.266326	444.335022
4982.500698	0.638331	0.266326	1023.301514
4982.501584	0.087579	0.266326	1100.896851
4982.502548	0.082939	0.266326	1180.850464
4982.503456	0.082885	0.266326	1256.109619
4982.504354	0.082976	0.266326	1330.622070
4982.505259	0.082903	0.266326	1405.649170
4982.506185	0.082969	0.266326	1482.478271
4982.507092	0.082874	0.266326	1557.644531
4982.507990	0.082936	0.266326	1632.120850
4982.508927	0.082888	0.266326	1709.787109
4982.509832	0.082925	0.266326	1784.834106
4983.564244	1.018634	0.265194	454.310791
4983.565141	0.638668	0.265194	1027.196289
4983.566095	0.086147	0.265194	1109.380981
4983.567004	0.082837	0.265194	1184.679687
4983.567896	0.082972	0.265194	1258.691040
4983.568783	0.082939	0.265194	1332.258301
4983.569735	0.083064	0.265194	1411.335205
4983.570644	0.082983	0.265194	1486.767090
4983.571538	0.082994	0.265194	1560.964111
4983.572462	0.083002	0.265194	1637.657715
4983.573370	0.082899	0.265194	1712.930176
4983.574265	0.082917	0.265194	1787.141357
4984.605665	1.024457	0.272352	459.981079
4984.606599	0.603959	0.272352	1024.078613
4984.607490	0.086459	0.272352	1101.113403
4984.608396	0.082896	0.272352	1176.216675
4984.609326	0.082976	0.272352	1253.384399
4984.610238	0.082896	0.272352	1328.985107
4984.611134	0.082932	0.272352	1403.292236
4984.612057	0.082961	0.272352	1479.865601
4984.612962	0.082961	0.272352	1554.945679
4984.613866	0.082877	0.272352	1629.866699
4984.614756	0.082914	0.272352	1703.660034
4984.615698	0.082976	0.272352	1781.823486
4985.673674	1.000690	0.259172	437.301422
4985.674568	0.650929	0.259172	1019.231812
4985.675533	0.085756	0.259172	1101.985962
4985.676430	0.082822	0.259172	1176.277588
4985.677329	0.082954	0.259172	1250.853271
4985.678213	0.082928	0.259172	1324.161987
4985.679162	0.083027	0.259172	1402.954956
4985.680059	0.082903	0.259172	1477.318848
4985.680952	0.082991	0.259172	1551.429565
4985.681881	0.082976	0.259172	1628.514282
4985.682789	0.083024	0.259172	1703.899780
4985.683696	0.082917	0.259172	1779.105957
4986.713561	1.005322	0.274487	451.389740
4986.714453	0.642491	0.274487	1024.492065
4986.715391	0.087393	0.274487	1106.466309
4986.716313	0.082833	0.274487	1182.838623
4986.717221	0.082797	0.274487	1258.017944
4986.718110	0.082859	0.274487	1331.679443
4986.719040	0.082947	0.274487	1408.819946
4986.719949	0.082863	0.274487	1484.141968
4986.720840	0.082903	0.274487	1558.008423
4986.721732	0.082903	0.274487	1631.957764
4986.722682	0.082954	0.274487	1710.764160
4986.723577	0.082921	0.274487	1784.978516
4987.785228	1.071270	0.260380	537.777283
4987.786149	0.519291	0.260380	1016.044128
4987.787046	0.085206	0.260380	1092.474121
4987.787932	0.082844	0.260380	1165.874146
4987.788884	0.082976	0.260380	1244.867432
4987.789794	0.082932	0.260380	1320.335693
4987.790696	0.083002	0.260380	1395.203247
4987.791623	0.082972	0.260380	1472.118652
4987.792528	0.082917	0.260380	1547.158936
4987.793425	0.082888	0.260380	1621.509644
4987.794312	0.082877	0.260380	1695.021729
4987.795248	0.082954	0.260380	1772.666748
4988.821982	1.027998	0.269428	462.599152
4988.822909	0.598616	0.269428	1017.515869
4988.823798	0.086495	0.269428	1094.410278
4988.824726	0.082950	0.269428	1171.388306
4988.825635	0.083009	0.269428	1246.843506
4988.826545	0.082896	0.269428	1322.278442
4988.827444	0.082972	0.269428	1396.870605
4988.828374	0.082965	0.269428	1474.028076
4988.829282	0.083049	0.269428	1549.436890
4988.830186	0.082943	0.269428	1624.417480
4988.831073	0.082998	0.269428	1698.036743
4988.832022	0.082943	0.269428	1776.749756
4989.894090	1.002894	0.259373	438.264801
4989.894987	0.652236	0.259373	1023.320801
4989.895924	0.086210	0.259373	1104.099365
4989.896837	0.082888	0.259373	1179.776245
4989.897757	0.082925	0.259373	1256.067017
4989.898644	0.082863	0.259373	1329.566040
4989.899606	0.082822	0.259373	1409.241089
4989.900502	0.082899	0.259373	1483.518799
4989.901390	0.082866	0.259373	1557.104004
4989.902334	0.082994	0.259373	1635.450684
4989.903232	0.082965	0.259373	1709.953369
4989.904121	0.082928	0.259373	1783.676758
4990.933452	1.008497	0.279281	443.738770
4990.934347	0.634856	0.279281	1011.934814
4990.935319	0.085430	0.279281	1094.972412
4990.936230	0.082830	0.279281	1170.430176
4990.937125	0.082917	0.279281	1244.641357
4990.938067	0.082896	0.279281	1322.728882
4990.938967	0.082863	0.279281	1397.305176
4990.939868	0.082877	0.279281	1471.977539
4990.940754	0.082778	0.279281	1545.319092
4990.941685	0.082914	0.279281	1622.511841
4990.942587	0.082841	0.279281	1697.234009
4990.943490	0.082888	0.279281	1772.082031
4992.003018	0.999364	0.267543	434.723328
4992.003918	0.649592	0.267543	1019.356384
4992.004883	0.085649	0.267543	1102.008057
4992.005778	0.082958	0.267543	1176.255249
4992.006677	0.082925	0.267543	1250.804687
4992.007563	0.082881	0.267543	1324.237183
4992.008503	0.082976	0.267543	1402.234741
4992.009412	0.082877	0.267543	1477.570068
4992.010303	0.082928	0.267543	1551.459351
4992.011238	0.082950	0.267543	1629.018066
4992.012144	0.082950	0.267543	1704.171143
4992.013047	0.082906	0.267543	1779.035645
4993.042385	1.017715	0.277263	452.883118
4993.043293	0.625404	0.277263	1020.750000
4993.044185	0.087213	0.277263	1098.544067
4993.045138	0.082903	0.277263	1177.550415
4993.046049	0.082822	0.277263	1253.001465
4993.046938	0.082998	0.277263	1326.786743
4993.047861	0.083005	0.277263	1403.400635
4993.048767	0.082965	0.277263	1478.567017
4993.049668	0.082917	0.277263	1553.275635
4993.050564	0.082954	0.277263	1627.602539
4993.051517	0.083013	0.277263	1706.713623
4993.052424	0.082994	0.277263	1781.989502
4994.110407	1.003187	0.266834	435.383301
4994.111364	0.620449	0.266834	1029.153198
4994.112278	0.085510	0.266834	1107.309570
4994.113186	0.082863	0.266834	1182.548828
4994.114073	0.082925	0.266834	1256.103149
4994.115031	0.082947	0.266834	1335.566162
4994.115933	0.082841	0.266834	1410.288330
4994.116832	0.082958	0.266834	1484.867310
4994.117721	0.082855	0.266834	1558.525635
4994.118659	0.082958	0.266834	1636.339966
4994.119555	0.082936	0.266834	1710.650391
4994.120449	0.082906	0.266834	1784.768799
4995.152849	1.009391	0.271962	443.122620
4995.153750	0.637079	0.271962	1017.130615
4995.154705	0.085627	0.271962	1098.904785
4995.155608	0.082870	0.271962	1173.736328
4995.156506	0.082928	0.271962	1248.206055
4995.157430	0.082939	0.271962	1324.842163
4995.158341	0.082917	0.271962	1400.380005
4995.159252	0.082910	0.271962	1475.911133
4995.160139	0.082932	0.271962	1549.471924
4995.161073	0.082998	0.271962	1626.992065
4995.161981	0.082921	0.271962	1702.284424
4995.162885	0.082994	0.271962	1777.311279
4996.217339	1.018821	0.269448	494.128082
4996.218276	0.526688	0.269448	987.634949
4996.219184	0.085184	0.269448	1064.982300
4996.220076	0.082870	0.269448	1138.902222
4996.221013	0.082998	0.269448	1216.671387
4996.221915	0.082925	0.269448	1291.469604
4996.222809	0.082906	0.269448	1365.588013
4996.223695	0.082896	0.269448	1439.033447
4996.224632	0.083005	0.269448	1516.809448
4996.225547	0.082870	0.269448	1592.635376
4996.226443	0.082896	0.269448	1666.909790
4996.227368	0.082914	0.269448	1743.605103
4997.266389	1.007820	0.273472	448.479797
4997.267280	0.650171	0.273472	1027.781982
4997.268209	0.087451	0.273472	1109.024170
4997.269120	0.082797	0.273472	1184.451904
4997.270034	0.082888	0.273472	1260.211670
4997.270934	0.082932	0.273472	1334.850586
4997.271872	0.082925	0.273472	1412.634033
4997.272786	0.082892	0.273472	1488.397217
4997.273699	0.082903	0.273472	1564.087524
4997.274588	0.082906	0.273472	1637.791382
4997.275525	0.082936	0.273472	1715.502197
4997.276431	0.082881	0.273472	1790.592285
4998.323152	1.007714	0.276840	442.386292
4998.324126	0.559808	0.276840	987.639587
4998.325034	0.085565	0.276840	1065.332764
4998.325931	0.082917	0.276840	1139.709717
4998.326817	0.082914	0.276840	1213.171387
4998.327754	0.082932	0.276840	1290.878784
4998.328660	0.082961	0.276840	1366.041870
4998.329559	0.082939	0.276840	1440.604492
4998.330485	0.082991	0.276840	1517.453857
4998.331402	0.083038	0.276840	1593.599976
4998.332311	0.082888	0.276840	1668.945312
4998.333201	0.082925	0.276840	1742.748413
4999.378915	1.040087	0.272288	481.560120
4999.379822	0.598575	0.272288	1024.468018
4999.380780	0.085529	0.272288	1106.404419
4999.381685	0.082958	0.272288	1181.481201
4999.382586	0.082928	0.272288	1256.199707
4999.383471	0.083016	0.272288	1329.669189
4999.384398	0.083086	0.272288	1406.689819
4999.385306	0.082906	0.272288	1481.968872
4999.386201	0.082976	0.272288	1556.232422
4999.387127	0.083057	0.272288	1633.142822
4999.388033	0.083046	0.272288	1708.382202
4999.388931	0.082972	0.272288	1782.891479
5000.429006	1.002543	0.274483	438.111176
5000.429899	0.651354	0.274483	1019.770142
5000.430843	0.086177	0.274483	1101.120972
5000.431762	0.082863	0.274483	1177.271606
5000.432660	0.082947	0.274483	1251.757812
5000.433585	0.082969	0.274483	1328.503906
5000.434502	0.082954	0.274483	1404.572754
5000.435413	0.082877	0.274483	1480.073853
5000.436306	0.082939	0.274483	1554.138794
5000.437242	0.082950	0.274483	1631.780396
5000.438139	0.082947	0.274483	1706.183594
5000.439032	0.082855	0.274483	1780.173340
5001.492439	1.031539	0.270862	467.287323
5001.493343	0.617413	0.270862	1025.428955
5001.494254	0.086975	0.270862	1104.663330
5001.495201	0.082899	0.270862	1183.168823
5001.496107	0.082892	0.270862	1258.268799
5001.496994	0.082932	0.270862	1331.829590
5001.497938	0.082991	0.270862	1410.172852
5001.498852	0.082859	0.270862	1485.905884
5001.499764	0.082998	0.270862	1561.600098
5001.500652	0.082947	0.270862	1635.256836
5001.501586	0.082950	0.270862	1712.732544
5001.502492	0.082863	0.270862	1787.806030
5002.536944	1.041486	0.274536	495.747192
5002.537879	0.541223	0.274536	1001.790771
5002.538783	0.085404	0.274536	1078.996094
5002.539675	0.082914	0.274536	1152.955200
5002.540630	0.082987	0.274536	1232.207886
5002.541541	0.082874	0.274536	1307.705688
5002.542428	0.082917	0.274536	1381.253540
5002.543349	0.082928	0.274536	1457.630615
5002.544261	0.082958	0.274536	1533.288086
5002.545163	0.082928	0.274536	1608.089600
5002.546060	0.082910	0.274536	1682.459961
5002.546990	0.082983	0.274536	1759.634521
5003.600388	1.070717	0.279720	523.580444
5003.601317	0.527307	0.279720	1013.448730
5003.602218	0.085151	0.279720	1090.170166
5003.603105	0.082804	0.279720	1163.617310
5003.604047	0.082917	0.279720	1241.725586
5003.604958	0.082815	0.279720	1317.170044
5003.605850	0.082874	0.279720	1391.093262
5003.606802	0.082877	0.279720	1469.992310
5003.607697	0.082903	0.279720	1544.190308
5003.608599	0.082888	0.279720	1618.955444
5003.609491	0.082943	0.279720	1692.940674
5003.610428	0.082969	0.279720	1770.682373
5004.647393	1.027057	0.273053	462.175568
5004.648322	0.605431	0.273053	1024.620850
5004.649215	0.086539	0.273053	1101.900391
5004.650152	0.082972	0.273053	1179.645508
5004.651063	0.082969	0.273053	1255.229980
5004.651966	0.082954	0.273053	1330.137573
5004.652859	0.082888	0.273053	1404.156738
5004.653804	0.083016	0.273053	1482.607178
5004.654710	0.082921	0.273053	1557.733765
5004.655609	0.082972	0.273053	1632.325928
5004.656538	0.082976	0.273053	1709.410645
5004.657436	0.082994	0.273053	1783.939575
5005.706197	1.023779	0.281505	459.676880
5005.707095	0.613011	0.281505	1010.161133
5005.708080	0.085162	0.281505	1094.046021
5005.708974	0.082906	0.281505	1168.164429
5005.709868	0.082925	0.281505	1242.299194
5005.710796	0.082980	0.281505	1319.304443
5005.711702	0.082910	0.281505	1394.421021
5005.712618	0.082983	0.281505	1470.433838
5005.713512	0.082987	0.281505	1544.624268
5005.714459	0.082969	0.281505	1623.195679
5005.715369	0.082994	0.281505	1698.720581
5005.716260	0.082987	0.281505	1772.662109
5006.762441	1.001873	0.266383	438.820160
5006.763387	0.620709	0.266383	1026.011108
5006.764297	0.085697	0.266383	1103.995361
5006.765202	0.082877	0.266383	1178.999268
5006.766088	0.082961	0.266383	1252.503052
5006.767038	0.083024	0.266383	1331.375488
5006.767951	0.082921	0.266383	1407.082520
5006.768852	0.082958	0.266383	1481.827515
5006.769781	0.083027	0.266383	1558.959961
5006.770678	0.082972	0.266383	1633.386230
5006.771579	0.082892	0.266383	1708.071777
5006.772468	0.082888	0.266383	1781.759399
5007.810511	1.012559	0.290702	446.538330
5007.811426	0.625510	0.290702	1018.880249
5007.812312	0.087070	0.290702	1096.024536
5007.813276	0.082943	0.290702	1175.981689
5007.814177	0.082969	0.290702	1250.736572
5007.815076	0.082954	0.290702	1325.312256
5007.815962	0.082965	0.290702	1398.819336
5007.816890	0.083090	0.290702	1475.926514
5007.817803	0.082994	0.290702	1551.700439
5007.818701	0.083031	0.290702	1626.262329
5007.819632	0.083009	0.290702	1703.543701
5007.820541	0.083035	0.290702	1779.022217
5008.876514	1.028474	0.273376	462.813354
5008.877434	0.603201	0.273376	1017.757996
5008.878340	0.086162	0.273376	1095.820923
5008.879231	0.082910	0.273376	1169.693848
5008.880182	0.083002	0.273376	1248.628418
5008.881094	0.082917	0.273376	1324.249146
5008.881989	0.083013	0.273376	1398.545532
5008.882931	0.082925	0.273376	1476.660645
5008.883829	0.083013	0.273376	1551.206055
5008.884723	0.082958	0.273376	1625.370361
5008.885607	0.083005	0.273376	1698.747070
5008.886543	0.083024	0.273376	1776.457275
5009.915337	1.002697	0.293030	436.172974
5009.916296	0.584114	0.293030	996.338074
5009.917202	0.085906	0.293030	1074.168701
5009.918103	0.082947	0.293030	1148.903809
5009.918987	0.082939	0.293030	1222.222290
5009.919913	0.083101	0.293030	1299.173462
5009.920824	0.082932	0.293030	1374.724609
5009.921722	0.083009	0.293030	1449.266724
5009.922649	0.082954	0.293030	1526.165161
5009.923552	0.082987	0.293030	1601.102539
5009.924456	0.082943	0.293030	1676.083130
5009.925348	0.082972	0.293030	1750.094482
5010.987993	1.021183	0.268461	463.617035
5010.988930	0.579628	0.268461	1006.728149
5010.989815	0.086243	0.268461	1083.052979
5010.990762	0.082866	0.268461	1161.527344
5010.991665	0.082866	0.268461	1236.355591
5010.992557	0.082972	0.268461	1310.366943
5010.993488	0.082936	0.268461	1387.580200
5010.994398	0.082917	0.268461	1463.035156
5010.995320	0.082947	0.268461	1539.512085
5010.996208	0.082885	0.268461	1613.113525
5010.997147	0.082925	0.268461	1690.979980
5010.998050	0.082914	0.268461	1765.851196
5012.024286	1.038820	0.288933	473.701721
5012.025219	0.571600	0.288933	1007.004883
5012.026122	0.085997	0.288933	1084.660400
5012.027080	0.082994	0.288933	1164.169067
5012.027982	0.083005	0.288933	1239.039917
5012.028872	0.082983	0.288933	1312.895142
5012.029805	0.082976	0.288933	1390.311768
5012.030716	0.083002	0.288933	1465.926270
5012.031629	0.083005	0.288933	1541.710205
5012.032522	0.083013	0.288933	1615.840576
5012.033463	0.083027	0.288933	1693.969360
5012.034359	0.082954	0.288933	1768.296265
5013.096406	1.022267	0.276236	457.975494
5013.097330	0.603710	0.276236	1015.803223
5013.098225	0.086517	0.276236	1093.236206
5013.099169	0.082874	0.276236	1171.468872
5013.100073	0.082958	0.276236	1246.462646
5013.100973	0.082961	0.276236	1321.127930
5013.101859	0.082965	0.276236	1394.635010
5013.102796	0.083042	0.276236	1472.445312
5013.103702	0.082950	0.276236	1547.598389
5013.104605	0.082950	0.276236	1622.502686
5013.105495	0.082980	0.276236	1696.354614
5013.106436	0.083005	0.276236	1774.462646
5014.136799	1.023395	0.283193	457.457428
5014.137701	0.629850	0.283193	1025.582031
5014.138588	0.087283	0.283193	1103.001831
5014.139548	0.082954	0.283193	1182.637817
5014.140455	0.082899	0.283193	1257.827393
5014.141345	0.082939	0.283193	1331.643555
5014.142282	0.082980	0.283193	1409.395508
5014.143185	0.082932	0.283193	1484.283203
5014.144089	0.082925	0.283193	1559.247192
5014.144979	0.082903	0.283193	1633.030762
5014.145932	0.083002	0.283193	1712.131348
5014.146824	0.082983	0.283193	1786.152588
5015.201743	1.018198	0.279406	453.098175
5015.202734	0.502009	0.279406	950.589355
5015.203642	0.084902	0.279406	1027.680664
5015.204550	0.082877	0.279406	1102.933105
5015.205487	0.082972	0.279406	1180.678223
5015.206382	0.083005	0.279406	1254.968018
5015.207293	0.082932	0.279406	1330.519165
5015.208184	0.082896	0.279406	1404.379028
5015.209123	0.082987	0.279406	1482.303833
5015.210016	0.082958	0.279406	1556.385132
5015.210918	0.082950	0.279406	1631.206421
5015.211807	0.082906	0.279406	1704.910278
5016.250832	1.006370	0.281670	442.802612
5016.251722	0.648578	0.281670	1020.036926
5016.252678	0.086125	0.281670	1102.372925
5016.253593	0.082903	0.281670	1178.229004
5016.254487	0.082921	0.281670	1252.360474
5016.255414	0.082914	0.281670	1329.221558
5016.256330	0.082932	0.281670	1405.187378
5016.257232	0.082914	0.281670	1479.975586
5016.258123	0.082958	0.281670	1553.890991
5016.259062	0.082947	0.281670	1631.778076
5016.259966	0.082972	0.281670	1706.785156
5016.260869	0.082976	0.281670	1781.712524
5017.306573	1.011372	0.286665	445.003723
5017.307483	0.630348	0.286665	1018.620300
5017.308376	0.087114	0.286665	1096.413330
5017.309329	0.082881	0.286665	1175.398804
5017.310238	0.082841	0.286665	1250.700928
5017.311135	0.082950	0.286665	1325.107422
5017.312020	0.082917	0.286665	1398.489380
5017.312950	0.082961	0.286665	1475.643555
5017.313855	0.082917	0.286665	1550.683838
5017.314749	0.082972	0.286665	1624.861206
5017.315672	0.082906	0.286665	1701.383911
5017.316583	0.082932	0.286665	1776.935059
5018.363348	1.018337	0.280490	455.196869
5018.364247	0.635918	0.280490	1026.887085
5018.365189	0.087180	0.280490	1109.010864
5018.366094	0.082921	0.280490	1184.054443
5018.366999	0.082888	0.280490	1259.068237
5018.367895	0.082954	0.280490	1333.395142
5018.368838	0.083016	0.280490	1411.679565
5018.369746	0.082965	0.280490	1487.011841
5018.370647	0.082936	0.280490	1561.736938
5018.371540	0.083057	0.280490	1635.906494
5018.372481	0.082972	0.280490	1713.983521
5018.373392	0.082965	0.280490	1789.564697
5019.412954	1.027163	0.280079	461.196198
5019.413860	0.621757	0.280079	1024.507690
5019.414746	0.087045	0.280079	1101.629272
5019.415704	0.082950	0.280079	1181.095825
5019.416610	0.082943	0.280079	1256.242310
5019.417505	0.082972	0.280079	1330.502563
5019.418434	0.082961	0.280079	1407.573730
5019.419335	0.082954	0.280079	1482.315430
5019.420230	0.082903	0.280079	1556.513428
5019.421113	0.082921	0.280079	1629.732788
5019.422086	0.083082	0.280079	1710.571899
5019.422993	0.082994	0.280079	1785.847778
5020.474852	1.021007	0.283813	474.768280
5020.475797	0.542227	0.283813	987.172363
5020.476718	0.085122	0.283813	1065.569824
5020.477613	0.082885	0.283813	1139.751465
5020.478541	0.083002	0.283813	1216.777100
5020.479447	0.082954	0.283813	1291.933472
5020.480355	0.082954	0.283813	1367.255859
5020.481244	0.082863	0.283813	1440.920654
5020.482194	0.083016	0.283813	1519.786133
5020.483098	0.082910	0.283813	1594.736938
5020.483989	0.082917	0.283813	1668.616455
5020.484921	0.082936	0.283813	1745.912598
5021.521367	1.026002	0.294492	459.648987
5021.522325	0.553942	0.294492	990.325134
5021.523236	0.085345	0.294492	1068.074829
5021.524137	0.082852	0.294492	1142.724121
5021.525064	0.082888	0.294492	1219.561523
5021.525965	0.082965	0.294492	1294.313110
5021.526868	0.082863	0.294492	1369.137939
5021.527757	0.082903	0.294492	1442.838623
5021.528711	0.082921	0.294492	1521.945435
5021.529617	0.082866	0.294492	1597.022217
5021.530512	0.082896	0.294492	1671.213745
5021.531432	0.082917	0.294492	1747.497803
5022.584273	1.005806	0.285348	442.554474
5022.585170	0.648333	0.285348	1024.108765
5022.586120	0.086125	0.285348	1105.927979
5022.587018	0.082914	0.285348	1180.384644
5022.587905	0.082925	0.285348	1253.938965
5022.588816	0.082950	0.285348	1329.506836
5022.589763	0.082833	0.285348	1407.949951
5022.590663	0.082906	0.285348	1482.565796
5022.591551	0.082928	0.285348	1556.206299
5022.592504	0.082899	0.285348	1635.209229
5022.593405	0.082914	0.285348	1709.914551
5022.594297	0.082980	0.285348	1783.932495
5023.629271	1.024830	0.286025	458.099152
5023.630183	0.617930	0.286025	1021.651001
5023.631074	0.086810	0.286025	1098.999023
5023.632023	0.082888	0.286025	1177.659912
5023.632943	0.082936	0.286025	1253.960815
5023.633840	0.082903	0.286025	1328.324707
5023.634780	0.082928	0.286025	1406.277466
5023.635682	0.083031	0.286025	1481.171387
5023.636584	0.082943	0.286025	1555.986084
5023.637470	0.082925	0.286025	1629.457520
5023.638411	0.083042	0.286025	1707.599976
5023.639314	0.083035	0.286025	1782.580322
5024.694223	1.021106	0.282085	453.371002
5024.695212	0.531877	0.282085	979.397827
5024.696124	0.085192	0.282085	1057.092651
5024.697014	0.082885	0.282085	1130.859863
5024.697944	0.083020	0.282085	1208.068481
5024.698847	0.083002	0.282085	1283.019043
5024.699748	0.082939	0.282085	1357.747437
5024.700636	0.082961	0.282085	1431.417236
5024.701588	0.082980	0.282085	1510.413940
5024.702487	0.082965	0.282085	1584.999512
5024.703389	0.083016	0.282085	1659.880249
5024.704273	0.083013	0.282085	1733.263428
5025.738716	1.016459	0.284776	457.406433
5025.739621	0.624968	0.284776	1023.002686
5025.740513	0.086975	0.284776	1100.584473
5025.741449	0.082815	0.284776	1178.099243
5025.742358	0.082954	0.284776	1253.504517
5025.743260	0.082914	0.284776	1328.292725
5025.744147	0.083013	0.284776	1401.924927
5025.745105	0.083013	0.284776	1481.451050
5025.746011	0.082885	0.284776	1556.544434
5025.746904	0.082987	0.284776	1630.651855
5025.747845	0.082998	0.284776	1708.753052
5025.748745	0.083002	0.284776	1783.454590
5026.803656	1.006600	0.287648	438.877716
5026.804625	0.563481	0.287648	984.891235
5026.805525	0.085693	0.287648	1062.015259
5026.806421	0.082899	0.287648	1136.292969
5026.807306	0.082852	0.287648	1209.616577
5026.808247	0.083035	0.287648	1287.752197
5026.809159	0.083038	0.287648	1363.483154
5026.810058	0.083002	0.287648	1438.101685
5026.810998	0.082965	0.287648	1516.088867
5026.811908	0.083031	0.287648	1591.647095
5026.812804	0.082939	0.287648	1665.960815
5026.813698	0.082950	0.287648	1740.118530
5027.848137	1.017345	0.287636	446.614441
5027.849116	0.538209	0.287636	973.521301
5027.850012	0.085485	0.287636	1050.115479
5027.850902	0.082906	0.287636	1123.902222
5027.851853	0.082972	0.287636	1202.808960
5027.852748	0.082910	0.287636	1277.013550
5027.853666	0.082925	0.287636	1353.138550
5027.854569	0.082914	0.287636	1428.009766
5027.855530	0.082896	0.287636	1507.672363
5027.856437	0.082910	0.287636	1582.871826
5027.857368	0.082950	0.287636	1660.098633
5027.858257	0.082965	0.287636	1733.854614
5028.912084	1.017880	0.289843	452.956482
5028.912991	0.629513	0.289843	1023.924744
5028.913880	0.087144	0.289843	1101.395386
5028.914844	0.082874	0.289843	1181.285522
5028.915747	0.082943	0.289843	1256.183105
5028.916636	0.082983	0.289843	1329.955322
5028.917579	0.082950	0.289843	1408.177612
5028.918487	0.082877	0.289843	1483.430054
5028.919382	0.082954	0.289843	1557.673950
5028.920270	0.082969	0.289843	1631.350220
5028.921206	0.082965	0.289843	1709.005493
5028.922120	0.082947	0.289843	1784.818848
5029.957636	1.076785	0.292587	535.161987
5029.958557	0.528051	0.292587	1021.496582
5029.959460	0.085254	0.292587	1098.480835
5029.960349	0.083013	0.292587	1172.279175
5029.961299	0.083020	0.292587	1251.148193
5029.962197	0.083027	0.292587	1325.706787
5029.963097	0.082969	0.292587	1400.378662
5029.964035	0.083009	0.292587	1478.241089
5029.964946	0.082914	0.292587	1553.775635
5029.965844	0.082936	0.292587	1628.251953
5029.966729	0.082921	0.292587	1701.637207
5029.967664	0.082950	0.292587	1779.195801
5031.021529	1.017664	0.290081	453.877960
5031.022433	0.629330	0.290081	1022.792114
5031.023325	0.087041	0.290081	1100.432739
5031.024278	0.082910	0.290081	1179.446167
5031.025183	0.082863	0.290081	1254.436768
5031.026090	0.082925	0.290081	1329.649536
5031.026979	0.082965	0.290081	1403.405518
5031.027923	0.082980	0.290081	1481.738403
5031.028829	0.082888	0.290081	1556.835083
5031.029722	0.082932	0.290081	1630.893433
5031.030664	0.082980	0.290081	1709.060303
5031.031570	0.082950	0.290081	1784.213379
5032.067543	1.018594	0.292107	451.237061
5032.068465	0.607690	0.292107	1011.527649
5032.069373	0.086272	0.292107	1089.862549
5032.070268	0.082881	0.292107	1164.040894
5032.071209	0.083079	0.292107	1242.217896
5032.072117	0.082969	0.292107	1317.553467
5032.073011	0.083009	0.292107	1391.763550
5032.073948	0.083038	0.292107	1469.570435
5032.074847	0.082917	0.292107	1544.113281
5032.075753	0.082987	0.292107	1619.299561
5032.076644	0.082958	0.292107	1693.214966
5032.077585	0.083024	0.292107	1771.340210
5033.129928	1.003330	0.288897	437.451935
5033.130908	0.532390	0.288897	959.194336
5033.131809	0.085452	0.288897	1036.186279
5033.132696	0.082866	0.288897	1109.688599
5033.133610	0.082943	0.288897	1185.498657
5033.134516	0.082969	0.288897	1260.668335
5033.135413	0.082983	0.288897	1335.104492
5033.136309	0.082980	0.288897	1409.454346
5033.137238	0.082994	0.288897	1486.556152
5033.138148	0.082976	0.288897	1562.064331
5033.139049	0.082899	0.288897	1636.756470
5033.139971	0.082994	0.288897	1713.277344
5034.179561	1.036600	0.289715	474.762970
5034.180468	0.602267	0.289715	1021.019043
5034.181433	0.085547	0.289715	1103.571777
5034.182351	0.082793	0.289715	1179.575684
5034.183271	0.082859	0.289715	1255.805908
5034.184158	0.082877	0.289715	1329.317993
5034.185104	0.082852	0.289715	1407.695557
5034.185996	0.082921	0.289715	1481.661255
5034.186885	0.082866	0.289715	1555.329346
5034.187812	0.082910	0.289715	1632.187012
5034.188728	0.082866	0.289715	1708.092407
5034.189633	0.082804	0.289715	1783.030029
5035.236817	1.015393	0.291471	451.849945
5035.237794	0.539205	0.291471	978.653564
5035.238690	0.085378	0.291471	1055.152588
5035.239576	0.082903	0.291471	1128.604492
5035.240506	0.082954	0.291471	1205.751831
5035.241427	0.082910	0.291471	1282.112061
5035.242330	0.082906	0.291471	1356.976562
5035.243221	0.082932	0.291471	1430.869141
5035.244157	0.082950	0.291471	1508.510742
5035.245068	0.082914	0.291471	1584.045288
5035.245961	0.082917	0.291471	1658.090576
5035.246896	0.082928	0.291471	1735.628662
5036.291550	1.026196	0.293856	462.814514
5036.292452	0.623511	0.293856	1025.221191
5036.293393	0.086960	0.293856	1107.051025
5036.294305	0.082987	0.293856	1182.735229
5036.295193	0.082987	0.293856	1256.427734
5036.296084	0.082969	0.293856	1330.352905
5036.297026	0.083016	0.293856	1408.554321
5036.297936	0.082958	0.293856	1484.045898
5036.298837	0.082892	0.293856	1558.731445
5036.299725	0.082983	0.293856	1632.420654
5036.300669	0.082987	0.293856	1710.760498
5036.301571	0.082881	0.293856	1785.519043
5037.342665	1.000345	0.296333	438.151276
5037.343631	0.550389	0.296333	969.827393
5037.344539	0.085474	0.296333	1047.437500
5037.345448	0.082928	0.296333	1122.819458
5037.346337	0.082958	0.296333	1196.568970
5037.347294	0.083013	0.296333	1276.012085
5037.348200	0.082980	0.296333	1351.191772
5037.349098	0.082998	0.296333	1425.723999
5037.350033	0.083013	0.296333	1503.340820
5037.350932	0.082980	0.296333	1577.939575
5037.351832	0.082958	0.296333	1652.601562
5037.352719	0.082950	0.296333	1726.178589
5038.404573	1.026844	0.289372	465.160492
5038.405476	0.622518	0.289372	1027.294556
5038.406398	0.087026	0.289372	1107.532837
5038.407308	0.082928	0.289372	1182.997803
5038.408217	0.082892	0.289372	1258.346436
5038.409114	0.082899	0.289372	1332.707031
5038.410050	0.082976	0.289372	1410.372681
5038.410956	0.082969	0.289372	1485.542358
5038.411855	0.082961	0.289372	1560.124634
5038.412745	0.082943	0.289372	1633.943970
5038.413691	0.083013	0.289372	1712.473999
5038.414599	0.082972	0.289372	1787.812988
5039.448527	1.010138	0.296389	445.470825
5039.449426	0.628304	0.296389	1010.316528
5039.450404	0.085217	0.296389	1093.659058
5039.451324	0.082885	0.296389	1169.912842
5039.452222	0.082972	0.296389	1244.422119
5039.453155	0.083057	0.296389	1321.913940
5039.454061	0.083009	0.296389	1397.120117
5039.454958	0.082896	0.296389	1471.477417
5039.455847	0.083005	0.296389	1545.269165
5039.456777	0.083031	0.296389	1622.488037
5039.457682	0.082969	0.296389	1697.574707
5039.458583	0.082925	0.296389	1772.289917
5040.516563	1.019198	0.287402	455.581543
5040.517526	0.556080	0.287402	991.086914
5040.518420	0.085635	0.287402	1067.644409
5040.519311	0.082914	0.287402	1141.520630
5040.520243	0.082980	0.287402	1218.857788
5040.521159	0.082925	0.287402	1294.816895
5040.522064	0.082885	0.287402	1369.827393
5040.522957	0.082980	0.287402	1443.928345
5040.523907	0.083046	0.287402	1522.821777
5040.524808	0.082925	0.287402	1597.536987
5040.525697	0.082994	0.287402	1671.318970
5040.526614	0.082983	0.287402	1747.414795
5041.555912	1.012610	0.305348	442.510498
5041.556886	0.558578	0.305348	986.565369
5041.557793	0.085518	0.305348	1064.129761
5041.558686	0.082863	0.305348	1138.125977
5041.559614	0.083005	0.305348	1215.154907
5041.560521	0.083053	0.305348	1290.484009
5041.561420	0.082936	0.305348	1365.043335
5041.562306	0.082994	0.305348	1438.576416
5041.563246	0.082961	0.305348	1516.560181
5041.564152	0.082983	0.305348	1591.743164
5041.565045	0.082939	0.305348	1665.808105
5041.565936	0.082983	0.305348	1739.746338
5042.628045	1.006461	0.291398	443.849365
5042.628937	0.649047	0.291398	1022.798950
5042.629908	0.085741	0.291398	1106.053467
5042.630815	0.082972	0.291398	1181.309448
5042.631709	0.082950	0.291398	1255.467163
5042.632616	0.082965	0.291398	1330.716553
5042.633531	0.082991	0.291398	1406.653076
5042.634440	0.082936	0.291398	1482.041748
5042.635339	0.082991	0.291398	1556.650391
5042.636270	0.082972	0.291398	1633.897705
5042.637178	0.083009	0.291398	1709.269897
5042.638080	0.082969	0.291398	1784.107666
5043.665365	1.012884	0.304035	452.759369
5043.666355	0.516431	0.304035	964.025757
5043.667265	0.084990	0.304035	1041.366821
5043.668169	0.082961	0.304035	1116.364014
5043.669052	0.082928	0.304035	1189.589844
5043.669993	0.082947	0.304035	1267.642822
5043.670901	0.082976	0.304035	1342.985107
5043.671805	0.082906	0.304035	1417.932617
5043.672731	0.082914	0.304035	1494.710815
5043.673635	0.082987	0.304035	1569.731079
5043.674535	0.082914	0.304035	1644.353516
5043.675424	0.082866	0.304035	1718.021606
5044.734412	1.005392	0.283044	440.361633
5044.735306	0.652057	0.283044	1023.300476
5044.736261	0.085880	0.283044	1105.316040
5044.737168	0.082921	0.283044	1180.525513
5044.738073	0.082837	0.283044	1255.492920
5044.738961	0.082943	0.283044	1329.146362
5044.739915	0.082969	0.283044	1408.298584
5044.740830	0.082943	0.283044	1484.191528
5044.741721	0.082925	0.283044	1558.077515
5044.742653	0.082947	0.283044	1635.383911
5044.743558	0.083046	0.283044	1710.540283
5044.744459	0.082892	0.283044	1785.225830
5045.778379	1.003945	0.301977	439.728058
5045.779350	0.566309	0.301977	989.613770
5045.780255	0.085496	0.301977	1066.987305
5045.781149	0.082917	0.301977	1141.115479
5045.782039	0.082987	0.301977	1214.973999
5045.782975	0.082991	0.301977	1292.653320
5045.783881	0.082906	0.301977	1367.766602
5045.784778	0.082976	0.301977	1442.196167
5045.785698	0.082976	0.301977	1518.534180
5045.786613	0.082961	0.301977	1594.443848
5045.787524	0.082950	0.301977	1670.011719
5045.788415	0.082925	0.301977	1743.897705
5046.840271	1.015898	0.288953	450.043030
5046.841176	0.636255	0.288953	1025.853638
5046.842061	0.087469	0.288953	1103.264160
5046.843027	0.082874	0.288953	1183.319946
5046.843940	0.082939	0.288953	1259.043701
5046.844836	0.082972	0.288953	1333.386963
5046.845777	0.082943	0.288953	1411.436401
5046.846674	0.082939	0.288953	1485.833130
5046.847579	0.082987	0.288953	1560.936401
5046.848493	0.082863	0.288953	1636.672729
5046.849387	0.082965	0.288953	1710.843506
5046.850322	0.082939	0.288953	1788.391846
5047.891413	1.012804	0.303278	455.761749
5047.892307	0.636713	0.303278	1024.982788
5047.893251	0.086935	0.303278	1107.049316
5047.894169	0.082841	0.303278	1183.096924
5047.895068	0.082939	0.303278	1257.659546
5047.895992	0.082906	0.303278	1334.265137
5047.896896	0.082954	0.303278	1409.255615
5047.897806	0.082866	0.303278	1484.663818
5047.898697	0.082936	0.303278	1558.559570
5047.899651	0.082921	0.303278	1637.666382
5047.900565	0.082896	0.303278	1713.432861
5047.901466	0.082921	0.303278	1788.144775
5048.945097	1.009603	0.293002	442.206238
5048.946083	0.530109	0.293002	964.893372
5048.946999	0.085243	0.293002	1042.975830
5048.947897	0.082947	0.293002	1117.462036
5048.948821	0.083002	0.293002	1194.155640
5048.949731	0.083013	0.293002	1269.697144
5048.950635	0.082903	0.293002	1344.641357
5048.951524	0.082954	0.293002	1418.387573
5048.952454	0.082943	0.293002	1495.524658
5048.953363	0.082925	0.293002	1570.903320
5048.954268	0.083002	0.293002	1646.019897
5048.955155	0.082903	0.293002	1719.554687
5050.004424	1.000199	0.298363	435.086548
5050.005373	0.612063	0.298363	1015.934326
5050.006287	0.085730	0.298363	1094.291504
5050.007192	0.082826	0.298363	1169.249023
5050.008081	0.082866	0.298363	1242.917114
5050.009019	0.082969	0.298363	1320.741821
5050.009924	0.082991	0.298363	1395.848389
5050.010829	0.082969	0.298363	1470.935059
5050.011718	0.082943	0.298363	1544.671509
5050.012654	0.082925	0.298363	1622.289062
5050.013558	0.082888	0.298363	1697.219971
5050.014447	0.082976	0.298363	1770.985718
5051.052037	1.039775	0.293312	516.768372
5051.052961	0.540278	0.293312	1015.985535
5051.053849	0.085448	0.293312	1091.863403
5051.054737	0.082877	0.293312	1165.458374
5051.055670	0.082991	0.293312	1242.888672
5051.056576	0.082906	0.293312	1318.001953
5051.057484	0.082932	0.293312	1393.304321
5051.058370	0.082969	0.293312	1466.814697
5051.059315	0.083038	0.293312	1545.285889
5051.060222	0.082950	0.293312	1620.521973
5051.061114	0.082969	0.293312	1694.530151
5051.062046	0.082961	0.293312	1771.850220
5052.115940	1.031642	0.297320	466.302124
5052.116863	0.593383	0.297320	1013.994202
5052.117754	0.086536	0.297320	1091.097412
5052.118642	0.082877	0.297320	1164.692383
5052.119585	0.082983	0.297320	1242.945679
5052.120480	0.082939	0.297320	1317.176514
5052.121367	0.082928	0.297320	1390.734009
5052.122303	0.083005	0.297320	1468.427002
5052.123219	0.082939	0.297320	1544.399536
5052.124123	0.082939	0.297320	1619.376831
5052.125016	0.082925	0.297320	1693.428711
5052.125964	0.082965	0.297320	1772.079590
5053.160908	1.007677	0.302222	441.362518
5053.161848	0.594866	0.302222	1000.536255
5053.162764	0.085704	0.302222	1079.041382
5053.163668	0.082910	0.302222	1153.992187
5053.164555	0.082950	0.302222	1227.569214
5053.165502	0.083005	0.302222	1306.175293
5053.166400	0.082910	0.302222	1380.628662
5053.167294	0.082921	0.302222	1454.760132
5053.168198	0.082921	0.302222	1529.720825
5053.169128	0.083049	0.302222	1606.956665
5053.170031	0.082939	0.302222	1681.850952
5053.170928	0.082939	0.302222	1756.247681
5054.223823	1.009043	0.302452	443.978851
5054.224724	0.634435	0.302452	1015.604614
5054.225657	0.086129	0.302452	1095.963135
5054.226576	0.082906	0.302452	1172.154175
5054.227473	0.082917	0.302452	1246.531128
5054.228405	0.082921	0.302452	1323.813599
5054.229306	0.082947	0.302452	1398.548584
5054.230210	0.082910	0.302452	1473.499390
5054.231100	0.082855	0.302452	1547.240479
5054.232041	0.082899	0.302452	1625.248535
5054.232947	0.082892	0.302452	1700.348511
5054.233849	0.082903	0.302452	1775.126831
5055.270855	1.000250	0.299282	437.109344
5055.271826	0.552957	0.299282	974.030151
5055.272736	0.085360	0.299282	1051.707886
5055.273637	0.082888	0.299282	1126.390137
5055.274526	0.082947	0.299282	1200.129883
5055.275475	0.082983	0.299282	1278.881104
5055.276380	0.082896	0.299282	1353.901489
5055.277276	0.082881	0.299282	1428.162720
5055.278212	0.082932	0.299282	1505.787231
5055.279110	0.082906	0.299282	1580.237305
5055.280017	0.082841	0.299282	1655.373657
5055.280909	0.082885	0.299282	1729.306641
5056.332248	1.019026	0.299544	454.485504
5056.333167	0.609159	0.299544	1014.302612
5056.334064	0.086726	0.299544	1092.095947
5056.334950	0.082852	0.299544	1165.502441
5056.335889	0.082892	0.299544	1243.337891
5056.336784	0.082833	0.299544	1317.473633
5056.337680	0.082896	0.299544	1391.748047
5056.338613	0.082950	0.299544	1469.140747
5056.339531	0.082928	0.299544	1545.269043
5056.340431	0.082943	0.299544	1619.917847
5056.341354	0.082892	0.299544	1696.427002
5056.342264	0.083013	0.299544	1771.968506
5057.383388	1.017180	0.301340	455.696686
5057.384281	0.624357	0.301340	1013.247192
5057.385228	0.085818	0.301340	1094.516724
5057.386148	0.082892	0.301340	1170.777222
5057.387047	0.083013	0.301340	1245.405640
5057.387980	0.082983	0.301340	1322.829102
5057.388888	0.082998	0.301340	1398.191284
5057.389787	0.082925	0.301340	1472.740723
5057.390672	0.082914	0.301340	1546.119507
5057.391612	0.083024	0.301340	1624.161743
5057.392514	0.082943	0.301340	1698.976440
5057.393410	0.082994	0.301340	1773.339355
5058.440137	1.003206	0.300438	436.394409
5058.441062	0.633461	0.300438	1022.345581
5058.441984	0.086276	0.300438	1101.891724
5058.442887	0.082870	0.300438	1176.723267
5058.443784	0.082925	0.300438	1251.106812
5058.444718	0.082983	0.300438	1328.613281
5058.445621	0.083005	0.300438	1403.567139
5058.446526	0.083016	0.300438	1478.696899
5058.447413	0.083005	0.300438	1552.322632
5058.448363	0.082994	0.300438	1631.167236
5058.449270	0.082980	0.300438	1706.429810
5058.450163	0.082987	0.300438	1780.537231
5059.493846	1.013397	0.301699	450.961761
5059.494744	0.638848	0.301699	1024.646973
5059.495691	0.086049	0.301699	1106.135010
5059.496591	0.082859	0.301699	1180.708008
5059.497500	0.082943	0.301699	1256.103271
5059.498396	0.082936	0.301699	1330.413696
5059.499363	0.082914	0.301699	1410.591309
5059.500267	0.082917	0.301699	1485.548706
5059.501157	0.082899	0.301699	1559.328979
5059.502081	0.082939	0.301699	1635.965088
5059.502987	0.082874	0.301699	1711.048462
5059.503879	0.082943	0.301699	1785.033691
5060.546512	1.015609	0.301646	451.946075
5060.547410	0.624979	0.301646	1013.177490
5060.548368	0.085858	0.301646	1095.429565
5060.549279	0.082917	0.301646	1170.967407
5060.550166	0.082921	0.301646	1244.518433
5060.551089	0.082969	0.301646	1321.098633
5060.552001	0.082899	0.301646	1396.702637
5060.552906	0.082917	0.301646	1471.742920
5060.553795	0.082914	0.301646	1545.453369
5060.554742	0.083009	0.301646	1624.062988
5060.555643	0.082925	0.301646	1698.778198
5060.556551	0.082917	0.301646	1774.067261
5061.604348	1.048411	0.299032	513.721191
5061.605280	0.527505	0.299032	1005.355774
5061.606188	0.085173	0.299032	1082.693115
5061.607078	0.082841	0.299032	1156.421265
5061.608031	0.082961	0.299032	1235.483521
5061.608940	0.082961	0.299032	1310.895508
5061.609836	0.082910	0.299032	1385.182983
5061.610749	0.082943	0.299032	1460.910034
5061.611662	0.082903	0.299032	1536.600342
5061.612572	0.082958	0.299032	1612.091919
5061.613474	0.082844	0.299032	1686.817383
5061.614403	0.082928	0.299032	1763.857910
5062.655517	1.064029	0.306646	557.551453
5062.656442	0.508246	0.306646	1027.678833
5062.657334	0.084910	0.306646	1103.418213
5062.658261	0.082917	0.306646	1180.282715
5062.659184	0.082866	0.306646	1256.768188
5062.660091	0.082914	0.306646	1331.971069
5062.660977	0.082906	0.306646	1405.426270
5062.661933	0.082932	0.306646	1484.709351
5062.662840	0.082925	0.306646	1559.922119
5062.663760	0.082888	0.306646	1636.179199
5062.664650	0.082925	0.306646	1709.982300
5062.665621	0.082961	0.306646	1790.537842
5063.713741	1.019777	0.302480	447.681915
5063.714706	0.551378	0.302480	979.761841
5063.715616	0.085433	0.302480	1057.506226
5063.716513	0.082870	0.302480	1131.840454
5063.717441	0.082943	0.302480	1208.811646
5063.718349	0.082932	0.302480	1284.114014
5063.719255	0.082936	0.302480	1359.253906
5063.720141	0.082932	0.302480	1432.731812
5063.721077	0.082980	0.302480	1510.400879
5063.721980	0.082921	0.302480	1585.278687
5063.722875	0.082903	0.302480	1659.476685
5063.723767	0.082917	0.302480	1733.439087
5064.765398	1.019008	0.306915	459.572418
5064.766294	0.635753	0.306915	1029.207275
5064.767244	0.087074	0.306915	1111.927490
5064.768152	0.082888	0.306915	1187.189941
5064.769049	0.082910	0.306915	1261.560303
5064.769939	0.082917	0.306915	1335.356812
5064.770889	0.082954	0.306915	1414.163208
5064.771786	0.082950	0.306915	1488.569702
5064.772691	0.082939	0.306915	1563.629883
5064.773581	0.082910	0.306915	1637.419922
5064.774521	0.082914	0.306915	1715.358887
5064.775424	0.082866	0.306915	1790.187134
5065.823180	1.007468	0.306102	443.286011
5065.824161	0.539557	0.306102	972.591370
5065.825062	0.085291	0.306102	1049.438110
5065.825958	0.082859	0.306102	1123.679687
5065.826850	0.082969	0.306102	1197.687866
5065.827799	0.082958	0.306102	1276.414795
5065.828712	0.082928	0.306102	1352.128418
5065.829613	0.082892	0.306102	1426.813965
5065.830549	0.082892	0.306102	1504.400757
5065.831458	0.082899	0.306102	1579.756104
5065.832364	0.082906	0.306102	1654.869385
5065.833253	0.082896	0.306102	1728.563477
5066.874323	1.027306	0.298202	459.205719
5066.875313	0.505525	0.298202	959.675354
5066.876217	0.084847	0.298202	1036.377441
5066.877105	0.082833	0.298202	1109.933350
5066.878041	0.082914	0.298202	1187.540649
5066.878957	0.082870	0.298202	1263.449463
5066.879880	0.082906	0.298202	1339.972168
5066.880770	0.082863	0.298202	1413.719849
5066.881720	0.082888	0.298202	1492.463623
5066.882623	0.082844	0.298202	1567.271973
5066.883515	0.082899	0.298202	1641.218018
5066.884432	0.082855	0.298202	1717.196289
5067.931608	1.020103	0.306198	461.086334
5067.932516	0.619358	0.306198	1023.463379
5067.933436	0.086873	0.306198	1103.386108
5067.934376	0.082881	0.306198	1181.294067
5067.935282	0.082899	0.306198	1256.400757
5067.936173	0.082994	0.306198	1330.348755
5067.937103	0.082950	0.306198	1407.492676
5067.938013	0.082987	0.306198	1483.010864
5067.938913	0.082885	0.306198	1557.606934
5067.939803	0.082910	0.306198	1631.396973
5067.940760	0.082980	0.306198	1710.808594
5067.941676	0.082950	0.306198	1786.791138
5068.985296	1.004231	0.304901	440.857391
5068.986192	0.652939	0.304901	1025.891113
5068.987139	0.086147	0.304901	1107.472778
5068.988043	0.082874	0.304901	1182.390503
5068.988944	0.082877	0.304901	1257.062866
5068.989829	0.082844	0.304901	1330.380005
5068.990773	0.082965	0.304901	1408.699097
5068.991684	0.082928	0.304901	1484.246948
5068.992574	0.082914	0.304901	1558.040283
5068.993504	0.082991	0.304901	1635.221680
5068.994410	0.082969	0.304901	1710.391357
5068.995309	0.082888	0.304901	1784.907837
5070.038996	1.006000	0.309514	443.645874
5070.039897	0.637903	0.309514	1018.396362
5070.040826	0.087316	0.309514	1099.512573
5070.041752	0.082826	0.309514	1176.209351
5070.042652	0.082943	0.309514	1250.858154
5070.043540	0.082888	0.309514	1324.462891
5070.044482	0.082932	0.309514	1402.584961
5070.045387	0.082874	0.309514	1477.585449
5070.046312	0.082976	0.309514	1554.338379
5070.047197	0.082914	0.309514	1627.717163
5070.048134	0.082906	0.309514	1705.400513
5070.049035	0.082903	0.309514	1780.095947
5071.096836	1.064366	0.303894	527.925781
5071.097758	0.529537	0.303894	1016.159241
5071.098657	0.085221	0.303894	1092.772827
5071.099546	0.082797	0.303894	1166.379028
5071.100496	0.082914	0.303894	1245.147217
5071.101409	0.082866	0.303894	1320.804077
5071.102305	0.082881	0.303894	1395.065308
5071.103233	0.082866	0.303894	1471.965210
5071.104139	0.082885	0.303894	1547.058594
5071.105029	0.082808	0.303894	1620.757324
5071.105920	0.082855	0.303894	1694.581299
5071.106870	0.082778	0.303894	1773.220703
5072.146910	1.033030	0.309175	467.962494
5072.147825	0.596968	0.309175	1014.187988
5072.148733	0.086082	0.309175	1092.349976
5072.149644	0.082859	0.309175	1167.834473
5072.150564	0.082939	0.309175	1244.138794
5072.151473	0.082863	0.309175	1319.460815
5072.152364	0.082925	0.309175	1393.346802
5072.153291	0.082936	0.309175	1470.228271
5072.154205	0.082899	0.309175	1545.998047
5072.155111	0.082928	0.309175	1621.131226
5072.155997	0.082899	0.309175	1694.579834
5072.156941	0.082936	0.309175	1772.871216
5073.208268	1.005787	0.306658	444.557953
5073.209163	0.646124	0.306658	1022.839111
5073.210129	0.085906	0.306658	1105.824097
5073.211030	0.082917	0.306658	1180.532715
5073.211924	0.082932	0.306658	1254.674072
5073.212818	0.082896	0.306658	1328.782715
5073.213769	0.082899	0.306658	1407.619873
5073.214676	0.082874	0.306658	1482.786133
5073.215568	0.082855	0.306658	1556.692993
5073.216494	0.082980	0.306658	1633.532227
5073.217400	0.082958	0.306658	1708.692017
5073.218299	0.082877	0.306658	1783.198608
5074.254303	1.022446	0.308362	457.033478
5074.255214	0.618900	0.308362	1020.851562
5074.256103	0.086730	0.308362	1097.954346
5074.257020	0.082925	0.308362	1173.996338
5074.257970	0.082954	0.308362	1252.802734
5074.258870	0.082980	0.308362	1327.484497
5074.259759	0.082917	0.308362	1401.198120
5074.260706	0.082965	0.308362	1479.766113
5074.261610	0.082972	0.308362	1554.773193
5074.262518	0.082943	0.308362	1630.085571
5074.263413	0.082917	0.308362	1704.296753
5074.264353	0.082965	0.308362	1782.283936
5075.317711	1.013635	0.307496	450.054077
5075.318616	0.631666	0.307496	1021.712036
5075.319559	0.086938	0.307496	1103.695068
5075.320460	0.082874	0.307496	1178.364136
5075.321357	0.082830	0.307496	1252.662231
5075.322246	0.082863	0.307496	1326.327026
5075.323193	0.082881	0.307496	1404.815186
5075.324086	0.082892	0.307496	1478.837646
5075.324992	0.082917	0.307496	1553.960937
5075.325881	0.082914	0.307496	1627.671387
5075.326823	0.082958	0.307496	1705.817627
5075.327730	0.082906	0.307496	1781.013794
5076.362187	1.001488	0.306392	436.648804
5076.363177	0.519606	0.306392	951.058472
5076.364096	0.084884	0.306392	1029.066895
5076.364994	0.082874	0.306392	1103.487305
5076.365902	0.082870	0.306392	1178.733154
5076.366826	0.082899	0.306392	1255.332031
5076.367735	0.082899	0.306392	1330.687378
5076.368626	0.082928	0.306392	1404.576660
5076.369554	0.082969	0.306392	1481.571655
5076.370465	0.082877	0.306392	1557.072754
5076.371367	0.082896	0.306392	1631.844482
5076.372260	0.082943	0.306392	1705.912720
5077.427152	1.016074	0.309683	448.088715
5077.428060	0.630740	0.309683	1020.800415
5077.428949	0.087158	0.309683	1098.284058
5077.429908	0.082870	0.309683	1177.756226
5077.430817	0.082859	0.309683	1253.074951
5077.431711	0.082888	0.309683	1327.177002
5077.432635	0.082965	0.309683	1403.836792
5077.433538	0.083005	0.309683	1478.790649
5077.434435	0.082885	0.309683	1553.138062
5077.435321	0.082921	0.309683	1626.606201
5077.436257	0.082899	0.309683	1704.199829
5077.437163	0.082885	0.309683	1779.293213
5078.473767	1.093894	0.306714	563.355408
5078.474672	0.514321	0.306714	1028.816162
5078.475584	0.084792	0.306714	1106.146851
5078.476481	0.082888	0.306714	1180.497559
5078.477456	0.082859	0.306714	1261.284912
5078.478359	0.082925	0.306714	1336.166016
5078.479251	0.082939	0.306714	1410.147949
5078.480181	0.082928	0.306714	1487.271484
5078.481100	0.082863	0.306714	1563.422119
5078.482000	0.082899	0.306714	1638.031372
5078.482914	0.082939	0.306714	1713.838013
5078.483829	0.082899	0.306714	1789.690796
5079.534043	1.025321	0.313079	460.369141
5079.534948	0.616688	0.313079	1018.471985
5079.535889	0.086440	0.313079	1099.812378
5079.536795	0.082844	0.313079	1174.869263
5079.537703	0.082885	0.313079	1250.128418
5079.538591	0.082841	0.313079	1323.690796
5079.539543	0.082914	0.313079	1402.624756
5079.540449	0.082906	0.313079	1477.738037
5079.541341	0.082910	0.313079	1551.693848
5079.542249	0.082896	0.313079	1626.963013
5079.543173	0.082965	0.313079	1703.622803
5079.544087	0.082848	0.313079	1779.345825
5080.585725	1.040424	0.297433	509.807526
5080.586649	0.540033	0.297433	1008.797974
5080.587545	0.085466	0.297433	1085.375732
5080.588438	0.082863	0.297433	1159.371948
5080.589381	0.082965	0.297433	1237.608032
5080.590280	0.082881	0.297433	1312.117920
5080.591183	0.082844	0.297433	1386.926270
5080.592073	0.082896	0.297433	1460.703247
5080.593020	0.082939	0.297433	1539.246948
5080.593923	0.082917	0.297433	1614.121460
5080.594817	0.082874	0.297433	1688.210449
5080.595752	0.082939	0.297433	1765.758789
5081.639889	1.012939	0.317578	447.719238
5081.640798	0.632626	0.317578	1022.776001
5081.641685	0.087385	0.317578	1100.286743
5081.642636	0.082885	0.317578	1179.109863
5081.643538	0.082943	0.317578	1253.924561
5081.644436	0.082932	0.317578	1328.397583
5081.645331	0.082910	0.317578	1402.602173
5081.646266	0.082991	0.317578	1480.198486
5081.647177	0.082928	0.317578	1555.746338
5081.648071	0.082950	0.317578	1629.904053
5081.648992	0.082888	0.317578	1706.244019
5081.649905	0.082987	0.317578	1782.011230
5082.699740	1.021802	0.305119	453.680023
5082.700654	0.622507	0.305119	1022.651733
5082.701542	0.086880	0.305119	1099.801025
5082.702469	0.082925	0.305119	1176.672363
5082.703391	0.082885	0.305119	1253.091919
5082.704292	0.082899	0.305119	1327.784058
5082.705182	0.082859	0.305119	1401.528442
5082.706119	0.082914	0.305119	1479.218750
5082.707020	0.082928	0.305119	1553.937256
5082.707921	0.082917	0.305119	1628.645874
5082.708810	0.082947	0.305119	1702.385498
5082.709761	0.082950	0.305119	1781.271362
5083.745276	1.029492	0.321466	500.333191
5083.746216	0.512780	0.321466	982.345947
5083.747115	0.084965	0.321466	1058.729126
5083.748003	0.082866	0.321466	1132.314331
5083.748952	0.082885	0.321466	1210.971680
5083.749858	0.082892	0.321466	1286.071655
5083.750759	0.082903	0.321466	1360.767090
5083.751643	0.082881	0.321466	1434.033813
5083.752588	0.082950	0.321466	1512.421997
5083.753483	0.082833	0.321466	1586.557739
5083.754380	0.082932	0.321466	1660.947876
5083.755316	0.082943	0.321466	1738.582642
5084.811749	1.020648	0.300172	474.601379
5084.812697	0.539612	0.300172	986.153381
5084.813609	0.085287	0.300172	1063.935059
5084.814507	0.082892	0.300172	1138.371948
5084.815441	0.082910	0.300172	1215.810059
5084.816342	0.082965	0.300172	1290.561646
5084.817242	0.082892	0.300172	1365.164307
5084.818127	0.082910	0.300172	1438.539795
5084.819066	0.082910	0.300172	1516.392456
5084.819974	0.082874	0.300172	1591.641602
5084.820869	0.082958	0.300172	1665.888794
5084.821791	0.082950	0.300172	1742.369141
5085.852632	1.022428	0.323524	454.980408
5085.853562	0.597546	0.323524	1010.698547
5085.854463	0.086188	0.323524	1088.353760
5085.855405	0.082899	0.323524	1166.444824
5085.856312	0.082896	0.323524	1241.631104
5085.857218	0.082961	0.323524	1316.794189
5085.858103	0.082906	0.323524	1390.166382
5085.859047	0.082983	0.323524	1468.502686
5085.859953	0.082903	0.323524	1543.612671
5085.860840	0.082896	0.323524	1617.140991
5085.861768	0.082950	0.323524	1694.119019
5085.862666	0.082980	0.323524	1768.634766
5086.922715	1.023896	0.301844	458.705627
5086.923622	0.626151	0.301844	1026.624756
5086.924515	0.087089	0.301844	1104.394897
5086.925458	0.082950	0.301844	1182.617187
5086.926358	0.082925	0.301844	1257.249512
5086.927254	0.082998	0.301844	1331.615723
5086.928153	0.082958	0.301844	1406.194702
5086.929100	0.083016	0.301844	1484.811157
5086.930011	0.082888	0.301844	1560.322266
5086.930908	0.082932	0.301844	1634.712402
5086.931842	0.083009	0.301844	1712.242798
5086.932743	0.083064	0.301844	1787.083374
5087.961047	1.010460	0.322944	453.696655
5087.961949	0.631494	0.322944	1023.304382
5087.962912	0.086873	0.322944	1106.962646
5087.963817	0.082899	0.322944	1181.986450
5087.964726	0.082943	0.322944	1257.381714
5087.965622	0.082928	0.322944	1331.685669
5087.966564	0.082903	0.322944	1409.780151
5087.967469	0.082936	0.322944	1484.837036
5087.968360	0.082892	0.322944	1558.693726
5087.969282	0.082998	0.322944	1635.217896
5087.970201	0.082903	0.322944	1711.405640
5087.971119	0.082910	0.322944	1787.517212
5089.032195	1.072471	0.308245	529.800537
5089.033125	0.525714	0.308245	1018.714661
5089.034025	0.085137	0.308245	1095.337646
5089.034911	0.082925	0.308245	1168.809082
5089.035858	0.082969	0.308245	1247.380493
5089.036754	0.082943	0.308245	1321.697510
5089.037645	0.082925	0.308245	1395.583496
5089.038594	0.082958	0.308245	1474.310425
5089.039492	0.082936	0.308245	1548.786743
5089.040392	0.082950	0.308245	1623.442139
5089.041280	0.082892	0.308245	1697.050049
5089.042212	0.082969	0.308245	1774.376953
5090.070474	0.997310	0.313470	430.837738
5090.071414	0.621643	0.313470	1015.182251
5090.072319	0.086265	0.313470	1093.251709
5090.073218	0.082830	0.313470	1167.715454
5090.074106	0.082914	0.313470	1241.342896
5090.075061	0.082928	0.313470	1320.539551
5090.075957	0.082874	0.313470	1394.794189
5090.076851	0.082815	0.313470	1468.830811
5090.077748	0.082910	0.313470	1543.201172
5090.078698	0.082969	0.313470	1622.021484
5090.079608	0.082866	0.313470	1697.429687
5090.080505	0.082965	0.313470	1771.849365
5091.138517	1.020029	0.308942	451.872925
5091.139442	0.604790	0.308942	1011.303711
5091.140344	0.086254	0.308942	1089.104492
5091.141278	0.082917	0.308942	1166.549438
5091.142184	0.082980	0.308942	1241.729126
5091.143089	0.082947	0.308942	1316.795898
5091.143978	0.082958	0.308942	1390.545410
5091.144937	0.083086	0.308942	1470.224854
5091.145843	0.083013	0.308942	1545.434326
5091.146738	0.082961	0.308942	1619.684814
5091.147624	0.082958	0.308942	1693.185425
5091.148560	0.082980	0.308942	1770.854492
5092.184010	1.006692	0.314170	440.931061
5092.184987	0.537202	0.314170	965.777588
5092.185905	0.085148	0.314170	1043.943237
5092.186804	0.082859	0.314170	1118.433350
5092.187730	0.082961	0.314170	1195.255615
5092.188650	0.082991	0.314170	1271.607056
5092.189554	0.082892	0.314170	1346.541260
5092.190447	0.082870	0.314170	1420.544067
5092.191383	0.082961	0.314170	1498.195923
5092.192294	0.082921	0.314170	1573.737061
5092.193196	0.082932	0.314170	1648.541870
5092.194084	0.082972	0.314170	1722.221313
5093.245431	1.056815	0.315995	508.328094
5093.246349	0.562665	0.315995	1024.854370
5093.247273	0.085173	0.315995	1103.554565
5093.248162	0.082859	0.315995	1177.216064
5093.249128	0.082906	0.315995	1257.303711
5093.250020	0.082910	0.315995	1331.259521
5093.250910	0.082936	0.315995	1405.072388
5093.251838	0.082903	0.315995	1482.006226
5093.252756	0.082892	0.315995	1558.100952
5093.253660	0.082917	0.315995	1633.058350
5093.254553	0.082958	0.315995	1707.139648
5093.255489	0.082896	0.315995	1784.729858
5094.294995	1.011262	0.315286	442.932831
5094.295922	0.613638	0.315286	1011.775024
5094.296821	0.086536	0.315286	1089.570557
5094.297745	0.082852	0.315286	1166.125366
5094.298654	0.082969	0.315286	1241.543945
5094.299552	0.082899	0.315286	1315.987427
5094.300440	0.082917	0.315286	1389.618164
5094.301383	0.082980	0.315286	1467.868042
5094.302282	0.083013	0.315286	1542.496460
5094.303184	0.083027	0.315286	1617.387085
5094.304099	0.082925	0.315286	1693.263306
5094.305028	0.083024	0.315286	1770.392334
5095.352780	1.002806	0.317856	438.226410
5095.353676	0.652738	0.317856	1023.079712
5095.354624	0.086016	0.317856	1104.622559
5095.355534	0.082885	0.317856	1180.047485
5095.356435	0.082936	0.317856	1254.772583
5095.357343	0.082961	0.317856	1330.101562
5095.358276	0.082958	0.317856	1407.501221
5095.359183	0.082910	0.317856	1482.700684
5095.360075	0.082921	0.317856	1556.666382
5095.361013	0.083020	0.317856	1634.539185
5095.361912	0.082976	0.317856	1709.134644
5095.362805	0.082972	0.317856	1783.229004
5096.406985	1.011841	0.314017	444.198120
5096.407961	0.538315	0.314017	969.593994
5096.408873	0.085228	0.314017	1047.322144
5096.409772	0.083002	0.314017	1121.940674
5096.410711	0.083002	0.314017	1199.879272
5096.411613	0.083075	0.314017	1274.812866
5096.412512	0.082870	0.314017	1349.312866
5096.413400	0.082950	0.314017	1422.972900
5096.414334	0.082987	0.314017	1500.482788
5096.415240	0.083005	0.314017	1575.685669
5096.416139	0.082892	0.314017	1650.205444
5096.417028	0.082969	0.314017	1723.964600
5097.460172	1.013134	0.319669	447.805023
5097.461141	0.583619	0.319669	1013.332153
5097.462050	0.085514	0.319669	1091.064331
5097.462950	0.082885	0.319669	1165.660400
5097.463836	0.083013	0.319669	1239.209595
5097.464769	0.083097	0.319669	1316.739014
5097.465686	0.082950	0.319669	1392.804565
5097.466586	0.082954	0.319669	1467.463257
5097.467469	0.083027	0.319669	1540.776367
5097.468407	0.082939	0.319669	1618.573608
5097.469311	0.082987	0.319669	1693.593872
5097.470200	0.082939	0.319669	1767.327026
5098.517501	1.064253	0.316036	514.034180
5098.518417	0.550071	0.316036	1017.898987
5098.519317	0.085507	0.316036	1094.854980
5098.520208	0.082892	0.316036	1168.711670
5098.521163	0.083024	0.316036	1247.999268
5098.522075	0.082943	0.316036	1323.643433
5098.522971	0.082896	0.316036	1397.917847
5098.523904	0.082983	0.316036	1475.341309
5098.524807	0.082991	0.316036	1550.281982
5098.525701	0.082928	0.316036	1624.420044
5098.526590	0.082947	0.316036	1698.159668
5098.527528	0.083042	0.316036	1776.053101
5099.568595	1.016411	0.320584	453.319397
5099.569498	0.629183	0.320584	1021.471985
5099.570448	0.086840	0.320584	1103.969604
5099.571354	0.082980	0.320584	1179.149292
5099.572253	0.082885	0.320584	1253.662476
5099.573143	0.082903	0.320584	1327.446045
5099.574092	0.082983	0.320584	1406.197266
5099.574999	0.082877	0.320584	1481.366943
5099.575906	0.082998	0.320584	1556.646118
5099.576793	0.082896	0.320584	1630.174438
5099.577749	0.082969	0.320584	1709.492554
5099.578655	0.082903	0.320584	1784.602539
5100.626905	1.011442	0.316765	444.022858
5100.627841	0.621409	0.316765	1025.661377
5100.628759	0.085909	0.316765	1104.526245
5100.629658	0.082896	0.316765	1179.049316
5100.630545	0.082958	0.316765	1252.632812
5100.631479	0.082863	0.316765	1330.026489
5100.632395	0.082950	0.316765	1406.009033
5100.633321	0.082921	0.316765	1482.793945
5100.634213	0.082939	0.316765	1556.775879
5100.635164	0.082950	0.316765	1635.661743
5100.636066	0.082892	0.316765	1710.430176
5100.636957	0.082950	0.316765	1784.338989
5101.677578	1.079597	0.324358	543.037354
5101.678509	0.518254	0.324358	1025.532104
5101.679402	0.085074	0.324358	1101.503662
5101.680346	0.082958	0.324358	1179.815796
5101.681239	0.082885	0.324358	1253.831665
5101.682142	0.082950	0.324358	1328.735962
5101.683033	0.082932	0.324358	1402.628540
5101.683964	0.082939	0.324358	1479.845215
5101.684871	0.082874	0.324358	1555.011475
5101.685773	0.082892	0.324358	1629.779907
5101.686672	0.082983	0.324358	1704.381958
5101.687608	0.082936	0.324358	1782.009888
5102.736912	1.050044	0.320531	535.522400
5102.737834	0.517214	0.320531	1012.394043
5102.738726	0.085071	0.320531	1088.277222
5102.739614	0.082917	0.320531	1161.907959
5102.740543	0.082958	0.320531	1238.975708
5102.741456	0.082899	0.320531	1314.662598
5102.742356	0.082899	0.320531	1389.271851
5102.743263	0.082899	0.320531	1464.461426
5102.744183	0.082969	0.320531	1540.792725
5102.745090	0.082870	0.320531	1615.955688
5102.745981	0.082885	0.320531	1689.805786
5102.746914	0.083024	0.320531	1767.266846
5103.786995	1.053787	0.323436	497.387299
5103.787918	0.566488	0.323436	1020.255737
5103.788826	0.085668	0.323436	1098.041992
5103.789715	0.082958	0.323436	1171.791504
5103.790666	0.082976	0.323436	1250.701782
5103.791577	0.082961	0.323436	1326.279663
5103.792473	0.082914	0.323436	1400.570435
5103.793410	0.082987	0.323436	1478.329346
5103.794309	0.083035	0.323436	1552.977539
5103.795210	0.082972	0.323436	1627.735718
5103.796101	0.082921	0.323436	1701.618408
5103.797035	0.083005	0.323436	1779.145386
5104.845286	1.033096	0.315887	475.224030
5104.846199	0.596657	0.315887	1019.971436
5104.847087	0.086462	0.315887	1096.750000
5104.848048	0.082877	0.315887	1176.395020
5104.848942	0.082877	0.315887	1250.487183
5104.849830	0.082863	0.315887	1324.069092
5104.850768	0.082914	0.315887	1401.842285
5104.851680	0.082863	0.315887	1477.412964
5104.852608	0.082899	0.315887	1554.343384
5104.853507	0.082852	0.315887	1628.826904
5104.854460	0.082947	0.315887	1707.875244
5104.855376	0.082837	0.315887	1783.753906
5105.897436	1.019945	0.323154	451.835632
5105.898344	0.624796	0.323154	1019.150513
5105.899232	0.087067	0.323154	1096.465698
5105.900166	0.082925	0.323154	1173.917480
5105.901087	0.082965	0.323154	1250.328369
5105.901995	0.082932	0.323154	1325.630737
5105.902885	0.082961	0.323154	1399.466431
5105.903833	0.082983	0.323154	1478.134644
5105.904736	0.082921	0.323154	1553.012451
5105.905628	0.082947	0.323154	1627.000977
5105.906564	0.083016	0.323154	1704.704346
5105.907455	0.082998	0.323154	1778.655640
5106.954192	1.010881	0.322143	447.820404
5106.955094	0.642799	0.322143	1027.625122
5106.955982	0.087594	0.322143	1105.408569
5106.956932	0.082947	0.322143	1184.208008
5106.957847	0.082874	0.322143	1260.037231
5106.958746	0.082914	0.322143	1334.576782
5106.959685	0.082928	0.322143	1412.446655
5106.960587	0.082958	0.322143	1487.274536
5106.961488	0.082936	0.322143	1561.999634
5106.962374	0.082969	0.322143	1635.510010
5106.963308	0.082917	0.322143	1712.954956
5106.964211	0.082928	0.322143	1787.839355
5108.007371	1.008270	0.321313	442.630646
5108.008275	0.644634	0.321313	1025.379517
5108.009164	0.087502	0.321313	1103.169189
5108.010125	0.082991	0.321313	1182.923218
5108.011033	0.082914	0.321313	1258.208984
5108.011929	0.082870	0.321313	1332.460449
5108.012855	0.082906	0.321313	1409.231812
5108.013763	0.082943	0.321313	1484.544189
5108.014677	0.082896	0.321313	1560.310669
5108.015566	0.082987	0.321313	1634.086182
5108.016490	0.082972	0.321313	1710.752686
5108.017402	0.082947	0.321313	1786.400146
5109.061082	1.022384	0.321683	461.095215
5109.061987	0.620826	0.321683	1022.943115
5109.062939	0.086459	0.321683	1105.251831
5109.063845	0.082928	0.321683	1180.385010
5109.064746	0.082947	0.321683	1255.120117
5109.065634	0.082906	0.321683	1328.741089
5109.066578	0.082969	0.321683	1407.063599
5109.067486	0.082874	0.321683	1482.312744
5109.068381	0.082928	0.321683	1556.533691
5109.069303	0.082859	0.321683	1632.929565
5109.070193	0.082914	0.321683	1706.722900
5109.071134	0.082881	0.321683	1784.713745
5110.119376	1.014437	0.323025	447.366791
5110.120353	0.533917	0.323025	969.003906
5110.121253	0.085320	0.323025	1045.791748
5110.122145	0.082914	0.323025	1119.750854
5110.123058	0.082969	0.323025	1195.501343
5110.123969	0.082943	0.323025	1271.062500
5110.124868	0.082958	0.323025	1345.641479
5110.125760	0.082991	0.323025	1419.669189
5110.126692	0.082969	0.323025	1496.996094
5110.127608	0.082921	0.323025	1572.951904
5110.128507	0.082961	0.323025	1647.534180
5110.129396	0.082980	0.323025	1721.303223
5111.168471	1.013214	0.328193	449.867065
5111.169420	0.584641	0.328193	1004.691467
5111.170329	0.085730	0.328193	1082.619995
5111.171225	0.082863	0.328193	1156.864868
5111.172116	0.082925	0.328193	1230.750854
5111.173055	0.083038	0.328193	1308.723877
5111.173963	0.082969	0.328193	1384.059448
5111.174864	0.082950	0.328193	1458.797852
5111.175780	0.082987	0.328193	1534.813965
5111.176698	0.082987	0.328193	1610.996094
5111.177604	0.082954	0.328193	1686.152466
5111.178496	0.082943	0.328193	1760.137695
5112.231375	1.007739	0.322147	442.397552
5112.232269	0.640785	0.322147	1015.259277
5112.233225	0.085990	0.322147	1097.465698
5112.234141	0.082866	0.322147	1173.371094
5112.235036	0.082914	0.322147	1247.578979
5112.235975	0.082950	0.322147	1325.469482
5112.236872	0.082994	0.322147	1399.915405
5112.237770	0.082958	0.322147	1474.411499
5112.238665	0.082917	0.322147	1548.622681
5112.239600	0.082991	0.322147	1626.218994
5112.240495	0.082950	0.322147	1700.459595
5112.241396	0.082972	0.322147	1775.217773
5113.275379	1.044104	0.326243	500.125793
5113.276285	0.574889	0.326243	1020.975098
5113.277243	0.085404	0.326243	1102.792236
5113.278158	0.082892	0.326243	1178.638306
5113.279055	0.082994	0.326243	1253.084229
5113.279988	0.083005	0.326243	1330.528198
5113.280902	0.082917	0.326243	1406.314819
5113.281829	0.082947	0.326243	1483.206543
5113.282714	0.082950	0.326243	1556.617676
5113.283660	0.082925	0.326243	1635.064575
5113.284557	0.082914	0.326243	1709.438232
5113.285478	0.082881	0.326243	1785.771484
5114.342389	1.037644	0.318565	500.144409
5114.343301	0.569451	0.318565	1019.483398
5114.344202	0.085924	0.318565	1096.901001
5114.345090	0.082797	0.318565	1170.424438
5114.346037	0.082936	0.318565	1248.964600
5114.346941	0.082954	0.318565	1323.955078
5114.347845	0.082855	0.318565	1398.856201
5114.348752	0.082921	0.318565	1474.065674
5114.349683	0.082961	0.318565	1551.302734
5114.350591	0.082914	0.318565	1626.588501
5114.351487	0.082874	0.318565	1700.843140
5114.352431	0.082917	0.318565	1779.117187
5115.383249	1.017389	0.333623	454.772797
5115.384152	0.634215	0.333623	1027.468994
5115.385037	0.087239	0.333623	1104.675293
5115.386003	0.082906	0.333623	1184.762939
5115.386906	0.082885	0.333623	1259.607666
5115.387803	0.082833	0.333623	1333.909058
5115.388721	0.082881	0.333623	1409.993652
5115.389629	0.082950	0.333623	1485.312622
5115.390531	0.082892	0.333623	1560.081055
5115.391428	0.082943	0.333623	1634.481079
5115.392348	0.082903	0.333623	1710.751709
5115.393254	0.082822	0.333623	1785.788696
5116.452816	1.012438	0.319883	446.485077
5116.453740	0.610660	0.319883	1010.735352
5116.454640	0.086440	0.319883	1088.531738
5116.455577	0.082903	0.319883	1166.211670
5116.456474	0.082910	0.319883	1240.582031
5116.457370	0.082874	0.319883	1314.836670
5116.458255	0.082888	0.319883	1388.192749
5116.459184	0.082925	0.319883	1465.229858
5116.460090	0.082877	0.319883	1540.316650
5116.460987	0.082914	0.319883	1614.690308
5116.461905	0.082837	0.319883	1690.734619
5116.462824	0.082976	0.319883	1766.989624
5117.491657	1.010328	0.335025	440.503143
5117.492606	0.577002	0.335025	988.078003
5117.493526	0.085642	0.335025	1066.868774
5117.494429	0.082848	0.335025	1141.680420
5117.495366	0.082899	0.335025	1219.356934
5117.496268	0.082910	0.335025	1294.141846
5117.497170	0.082910	0.335025	1368.926758
5117.498058	0.082906	0.335025	1442.547729
5117.498997	0.083042	0.335025	1520.524170
5117.499897	0.082910	0.335025	1595.143311
5117.500798	0.082874	0.335025	1669.812378
5117.501684	0.082852	0.335025	1743.218872
5118.562306	1.034524	0.318916	512.089294
5118.563242	0.511282	0.318916	990.649048
5118.564139	0.085023	0.318916	1066.914795
5118.565034	0.082837	0.318916	1141.053833
5118.565961	0.082914	0.318916	1217.914917
5118.566869	0.082892	0.318916	1293.180664
5118.567768	0.082859	0.318916	1367.670776
5118.568659	0.082958	0.318916	1441.586182
5118.569608	0.082863	0.318916	1520.222778
5118.570515	0.082896	0.318916	1595.408936
5118.571404	0.082881	0.318916	1669.089966
5118.572334	0.082819	0.318916	1746.111328
5119.601106	1.003883	0.334026	440.704681
5119.602068	0.564404	0.334026	983.661621
5119.602969	0.085854	0.334026	1061.016479
5119.603866	0.082888	0.334026	1135.367187
5119.604754	0.082888	0.334026	1208.971924
5119.605685	0.082976	0.334026	1286.222656
5119.606594	0.082892	0.334026	1361.571289
5119.607490	0.082950	0.334026	1435.894897
5119.608417	0.082892	0.334026	1512.735596
5119.609330	0.083009	0.334026	1588.522827
5119.610236	0.082921	0.334026	1663.649414
5119.611125	0.082899	0.334026	1737.346802
5120.670157	1.004550	0.318896	440.997284
5120.671052	0.653357	0.318896	1025.751709
5120.672023	0.085576	0.318896	1108.846191
5120.672937	0.082914	0.318896	1184.629395
5120.673844	0.082936	0.318896	1259.852173
5120.674737	0.082969	0.318896	1333.943237
5120.675679	0.082943	0.318896	1412.075684
5120.676591	0.082932	0.318896	1487.709839
5120.677480	0.082939	0.318896	1561.442993
5120.678409	0.082936	0.318896	1638.490356
5120.679317	0.082896	0.318896	1713.759521
5120.680221	0.082932	0.318896	1788.730225
5121.713620	1.011991	0.337422	449.323975
5121.714517	0.632787	0.337422	1016.933777
5121.715485	0.085389	0.337422	1099.590698
5121.716390	0.082804	0.337422	1174.528320
5121.717287	0.082881	0.337422	1248.872437
5121.718211	0.082906	0.337422	1325.478027
5121.719113	0.083027	0.337422	1400.368652
5121.720014	0.082797	0.337422	1474.968384
5121.720900	0.082848	0.337422	1548.371582
5121.721830	0.082881	0.337422	1625.450806
5121.722731	0.082939	0.337422	1700.179199
5121.723640	0.082859	0.337422	1775.497925
5122.777032	1.004363	0.322134	436.897766
5122.777964	0.634951	0.322134	1028.672241
5122.778899	0.085737	0.322134	1108.836670
5122.779808	0.082969	0.322134	1184.255249
5122.780701	0.082994	0.322134	1258.369263
5122.781646	0.082983	0.322134	1336.788574
5122.782543	0.082950	0.322134	1411.195068
5122.783449	0.082976	0.322134	1486.371338
5122.784340	0.083035	0.322134	1560.355225
5122.785280	0.083049	0.322134	1638.421631
5122.786190	0.082954	0.322134	1713.909912
5122.787090	0.082892	0.322134	1788.512573
5123.826142	1.018143	0.333148	454.091919
5123.827047	0.629154	0.333148	1023.476379
5123.827933	0.087001	0.333148	1100.559082
5123.828877	0.082852	0.333148	1178.770996
5123.829785	0.082903	0.333148	1254.046753
5123.830696	0.082910	0.333148	1329.577881
5123.831594	0.082870	0.333148	1403.994995
5123.832546	0.082899	0.333148	1482.915039
5123.833453	0.082830	0.333148	1558.041504
5123.834378	0.082881	0.333148	1634.706299
5123.835268	0.082928	0.333148	1708.512695
5123.836213	0.082866	0.333148	1786.821289
5124.883402	1.009365	0.328950	444.120697
5124.884296	0.628641	0.328950	1006.126099
5124.885274	0.085389	0.328950	1089.636963
5124.886184	0.082925	0.328950	1165.098511
5124.887075	0.082991	0.328950	1239.043213
5124.888012	0.082917	0.328950	1316.736938
5124.888914	0.082925	0.328950	1391.535156
5124.889812	0.082980	0.328950	1466.051025
5124.890701	0.083005	0.328950	1539.842773
5124.891642	0.083016	0.328950	1617.961182
5124.892536	0.082943	0.328950	1692.112305
5124.893444	0.083049	0.328950	1767.521118
5125.938156	1.035707	0.330078	479.532227
5125.939070	0.585366	0.330078	1014.556946
5125.939971	0.085986	0.330078	1092.030640
5125.940863	0.082852	0.330078	1165.934204
5125.941816	0.082936	0.330078	1244.972046
5125.942729	0.082921	0.330078	1320.679077
5125.943630	0.082943	0.330078	1395.410767
5125.944552	0.082939	0.330078	1471.880981
5125.945458	0.082958	0.330078	1547.040771
5125.946357	0.082932	0.330078	1621.596802
5125.947248	0.082939	0.330078	1695.495850
5125.948177	0.082965	0.330078	1772.570435
5126.989777	1.007399	0.321905	445.270233
5126.990668	0.638529	0.321905	1014.199585
5126.991602	0.086268	0.321905	1094.774170
5126.992517	0.082789	0.321905	1170.526367
5126.993416	0.082903	0.321905	1245.056030
5126.994346	0.082874	0.321905	1322.128418
5126.995257	0.082863	0.321905	1397.616211
5126.996160	0.082881	0.321905	1472.457642
5126.997048	0.082885	0.321905	1546.059082
5126.998002	0.082958	0.321905	1625.200806
5126.998904	0.082958	0.321905	1700.028687
5126.999804	0.082906	0.321905	1774.644531
5128.049106	1.015887	0.328906	452.069946
5128.050012	0.628982	0.328906	1021.927551
5128.050943	0.086071	0.328906	1102.059204
5128.051829	0.082881	0.328906	1175.491699
5128.052785	0.082961	0.328906	1254.802856
5128.053709	0.082932	0.328906	1331.432129
5128.054598	0.082976	0.328906	1405.197876
5128.055531	0.082972	0.328906	1482.611084
5128.056439	0.082932	0.328906	1557.913452
5128.057355	0.083009	0.328906	1633.949707
5128.058247	0.082939	0.328906	1707.931641
5128.059202	0.082921	0.328906	1787.121338
5129.097674	1.003429	0.331565	438.498444
5129.098638	0.563672	0.331565	981.878174
5129.099550	0.085466	0.331565	1059.823486
5129.100443	0.082958	0.331565	1133.904785
5129.101380	0.082998	0.331565	1211.673950
5129.102292	0.082899	0.331565	1287.277954
5129.103201	0.082892	0.331565	1362.626587
5129.104096	0.082917	0.331565	1436.837769
5129.105042	0.082917	0.331565	1515.277710
5129.105942	0.082917	0.331565	1589.903442
5129.106828	0.082885	0.331565	1663.339111
5129.107746	0.082954	0.331565	1739.490967
5130.160632	1.023904	0.332503	493.521606
5130.161559	0.561152	0.332503	1013.709839
5130.162466	0.085551	0.332503	1091.304199
5130.163357	0.082917	0.332503	1165.183716
5130.164295	0.082863	0.332503	1242.908813
5130.165199	0.082950	0.332503	1317.895996
5130.166094	0.082914	0.332503	1392.103882
5130.166979	0.082928	0.332503	1465.495605
5130.167935	0.082969	0.332503	1544.813721
5130.168843	0.082910	0.332503	1620.096191
5130.169735	0.082958	0.332503	1694.094482
5130.170656	0.082980	0.332503	1770.518799
5131.206100	1.013258	0.329708	450.899841
5131.206994	0.626949	0.329708	1011.392639
5131.207931	0.086144	0.329708	1092.109375
5131.208854	0.082888	0.329708	1168.615234
5131.209754	0.082950	0.329708	1243.270630
5131.210683	0.082972	0.329708	1320.352051
5131.211585	0.083020	0.329708	1395.236084
5131.212495	0.082925	0.329708	1470.697632
5131.213388	0.082965	0.329708	1544.785400
5131.214328	0.082998	0.329708	1622.803589
5131.215230	0.082954	0.329708	1697.628174
5131.216126	0.082961	0.329708	1771.961670
5132.268510	1.033121	0.327565	473.169586
5132.269409	0.617022	0.327565	1027.871948
5132.270324	0.086906	0.327565	1107.390503
5132.271256	0.082939	0.327565	1184.690063
5132.272168	0.082896	0.327565	1260.290771
5132.273067	0.082958	0.327565	1334.869751
5132.274006	0.082969	0.327565	1412.777344
5132.274908	0.082947	0.327565	1487.595337
5132.275803	0.082925	0.327565	1561.812988
5132.276688	0.082855	0.327565	1635.139893
5132.277617	0.083035	0.327565	1712.279053
5132.278525	0.082939	0.327565	1787.588135
5133.318159	1.082948	0.331512	550.137573
5133.319073	0.523055	0.331512	1028.210205
5133.319992	0.084796	0.331512	1106.137817
5133.320892	0.082870	0.331512	1180.720703
5133.321854	0.082925	0.331512	1260.494385
5133.322761	0.082976	0.331512	1335.753662
5133.323649	0.082958	0.331512	1409.420166
5133.324593	0.083046	0.331512	1487.815308
5133.325493	0.082998	0.331512	1562.513550
5133.326409	0.082932	0.331512	1638.479370
5133.327305	0.082950	0.331512	1712.802979
5133.328236	0.082980	0.331512	1790.057129
5134.376399	1.006051	0.329974	439.644257
5134.377358	0.565554	0.329974	982.010742
5134.378262	0.085723	0.329974	1059.504028
5134.379171	0.082877	0.329974	1134.839355
5134.380073	0.082947	0.329974	1209.657349
5134.381001	0.083013	0.329974	1286.693115
5134.381909	0.082969	0.329974	1362.028687
5134.382799	0.082998	0.329974	1435.896973
5134.383733	0.083002	0.329974	1513.420532
5134.384639	0.082994	0.329974	1588.613403
5134.385547	0.083013	0.329974	1663.988892
5134.386438	0.083005	0.329974	1737.946655
5135.426506	1.014825	0.333402	446.523193
5135.427475	0.552213	0.333402	981.617737
5135.428384	0.085525	0.333402	1059.359863
5135.429274	0.082906	0.333402	1133.146606
5135.430206	0.082987	0.333402	1210.490601
5135.431118	0.083027	0.333402	1286.211548
5135.432021	0.082943	0.333402	1361.109131
5135.432909	0.082939	0.333402	1434.759399
5135.433862	0.083024	0.333402	1513.880981
5135.434764	0.082991	0.333402	1588.738647
5135.435673	0.082976	0.333402	1664.163940
5135.436558	0.082969	0.333402	1737.591309
5136.485832	1.006044	0.331073	440.647125
5136.486790	0.595745	0.331073	1011.370483
5136.487702	0.085503	0.331073	1089.349121
5136.488607	0.082885	0.331073	1164.359619
5136.489499	0.082896	0.331073	1238.302368
5136.490453	0.082991	0.331073	1317.475464
5136.491355	0.082939	0.331073	1392.286865
5136.492262	0.082932	0.331073	1467.506348
5136.493155	0.082888	0.331073	1541.525513
5136.494098	0.082958	0.331073	1619.754639
5136.495001	0.082906	0.331073	1694.619141
5136.495892	0.082914	0.331073	1768.495361
5137.536971	1.005952	0.330876	441.612976
5137.537934	0.550968	0.330876	972.195129
5137.538846	0.085188	0.330876	1049.886597
5137.539773	0.082870	0.330876	1126.707031
5137.540668	0.082958	0.330876	1200.954224
5137.541619	0.082958	0.330876	1279.847046
5137.542514	0.082877	0.330876	1354.022095
5137.543401	0.082943	0.330876	1427.592651
5137.544334	0.082983	0.330876	1505.016113
5137.545238	0.082914	0.330876	1579.970215
5137.546155	0.082939	0.330876	1656.025635
5137.547046	0.082903	0.330876	1729.892090
5138.594271	1.028687	0.329136	463.937622
5138.595175	0.624379	0.329136	1028.375977
5138.596063	0.087195	0.329136	1105.804932
5138.597012	0.082917	0.329136	1184.493652
5138.597920	0.082943	0.329136	1259.806030
5138.598813	0.082972	0.329136	1333.900391
5138.599735	0.082961	0.329136	1410.390869
5138.600651	0.083016	0.329136	1486.433838
5138.601559	0.082928	0.329136	1561.732910
5138.602456	0.082969	0.329136	1636.155884
5138.603391	0.082950	0.329136	1713.714600
5138.604288	0.083002	0.329136	1788.167114
5139.646946	1.038959	0.334119	474.804108
5139.647879	0.579598	0.334119	1015.569336
5139.648770	0.086082	0.334119	1092.267944
5139.649705	0.082841	0.334119	1169.723877
5139.650621	0.082976	0.334119	1245.729980
5139.651510	0.082914	0.334119	1319.440430
5139.652404	0.082841	0.334119	1393.499878
5139.653340	0.082910	0.334119	1471.103760
5139.654245	0.082939	0.334119	1546.163940
5139.655150	0.082936	0.334119	1621.220825
5139.656036	0.082881	0.334119	1694.653320
5139.656979	0.082954	0.334119	1772.879028
5140.703695	1.012676	0.334606	445.577332
5140.704621	0.621317	0.334606	1020.916992
5140.705517	0.086766	0.334606	1098.659668
5140.706458	0.082888	0.334606	1176.657471
5140.707358	0.082950	0.334606	1251.312866
5140.708253	0.082863	0.334606	1325.474854
5140.709137	0.082906	0.334606	1398.764160
5140.710072	0.082991	0.334606	1476.360474
5140.710971	0.082914	0.334606	1550.900024
5140.711869	0.082936	0.334606	1625.376343
5140.712766	0.082885	0.334606	1699.723755
5140.713694	0.082972	0.334606	1776.722168
5141.755346	1.010317	0.329647	449.591217
5141.756244	0.639844	0.329647	1024.170898
5141.757188	0.086971	0.329647	1106.271973
5141.758089	0.082855	0.329647	1180.924561
5141.759008	0.082928	0.329647	1257.135864
5141.759896	0.082885	0.329647	1330.737305
5141.760848	0.082950	0.329647	1409.706055
5141.761753	0.082874	0.329647	1484.706543
5141.762664	0.082892	0.329647	1560.221069
5141.763563	0.082910	0.329647	1634.757324
5141.764531	0.082950	0.329647	1715.053345
5141.765434	0.082928	0.329647	1789.937744
5142.813146	1.022021	0.332669	454.799530
5142.814065	0.605391	0.332669	1011.153442
5142.814969	0.086287	0.332669	1089.156494
5142.815857	0.082848	0.332669	1162.725464
5142.816809	0.082928	0.332669	1241.673340
5142.817714	0.082914	0.332669	1316.710327
5142.818610	0.082877	0.332669	1390.968262
5142.819550	0.082939	0.332669	1468.931396
5142.820452	0.083009	0.332669	1543.805542
5142.821344	0.082881	0.332669	1617.735229
5142.822236	0.082965	0.332669	1691.740112
5142.823174	0.082983	0.332669	1769.578491
5143.866354	1.053560	0.333603	495.172974
5143.867279	0.558984	0.333603	1012.233521
5143.868188	0.085481	0.333603	1089.935669
5143.869074	0.082932	0.333603	1163.413574
5143.870024	0.082980	0.333603	1242.244385
5143.870929	0.082969	0.333603	1317.331055
5143.871817	0.082954	0.333603	1390.994263
5143.872737	0.083002	0.333603	1467.355835
5143.873640	0.082972	0.333603	1542.279907
5143.874546	0.082906	0.333603	1617.393188
5143.875437	0.082947	0.333603	1691.298828
5143.876393	0.082932	0.333603	1770.581909
5144.923098	1.014005	0.332217	448.190277
5144.924033	0.596609	0.332217	1006.019531
5144.924930	0.086158	0.332217	1083.303711
5144.925853	0.082888	0.332217	1159.809570
5144.926760	0.082980	0.332217	1235.072144
5144.927652	0.082903	0.332217	1309.021484
5144.928539	0.082885	0.332217	1382.540039
5144.929476	0.082987	0.332217	1460.298950
5144.930377	0.082936	0.332217	1535.024048
5144.931278	0.082914	0.332217	1609.729370
5144.932172	0.082925	0.332217	1683.864136
5144.933120	0.083046	0.332217	1762.591431
5145.974738	1.004209	0.336955	445.868774
5145.975634	0.647545	0.336955	1026.069214
5145.976563	0.087528	0.336955	1107.382812
5145.977485	0.082892	0.336955	1183.809082
5145.978385	0.082888	0.336955	1258.408447
5145.979274	0.082866	0.336955	1332.076538
5145.980211	0.082859	0.336955	1409.715332
5145.981119	0.082866	0.336955	1484.957886
5145.982035	0.082819	0.336955	1560.819702
5145.982924	0.082800	0.336955	1634.429199
5145.983862	0.082906	0.336955	1712.195435
5145.984764	0.082852	0.336955	1786.927490
5147.033047	1.017400	0.334481	454.777771
5147.033977	0.596935	0.334481	1009.927185
5147.034874	0.086385	0.334481	1087.415039
5147.035828	0.082958	0.334481	1166.556763
5147.036732	0.082954	0.334481	1241.547241
5147.037631	0.082888	0.334481	1316.063721
5147.038515	0.082859	0.334481	1389.311035
5147.039452	0.082925	0.334481	1467.011597
5147.040364	0.082947	0.334481	1542.659058
5147.041263	0.082943	0.334481	1617.224854
5147.042176	0.082903	0.334481	1692.915161
5147.043094	0.082961	0.334481	1769.073730
5148.083173	1.025218	0.338111	465.449188
5148.084080	0.619050	0.338111	1026.927734
5148.084967	0.086931	0.338111	1104.035645
5148.085905	0.082888	0.338111	1181.784790
5148.086817	0.082870	0.338111	1257.362061
5148.087720	0.082983	0.338111	1332.296021
5148.088608	0.082881	0.338111	1405.894287
5148.089564	0.083053	0.338111	1485.292969
5148.090473	0.082910	0.338111	1560.658325
5148.091366	0.082969	0.338111	1634.749390
5148.092298	0.082991	0.338111	1712.096680
5148.093202	0.082947	0.338111	1787.080566
5149.141984	1.026844	0.336419	472.348419
5149.142944	0.526736	0.336419	978.014832
5149.143861	0.085085	0.336419	1056.038208
5149.144754	0.082925	0.336419	1130.090088
5149.145689	0.082954	0.336419	1207.652222
5149.146584	0.082928	0.336419	1281.873169
5149.147490	0.082885	0.336419	1356.966553
5149.148381	0.082972	0.336419	1430.895020
5149.149330	0.082969	0.336419	1509.632324
5149.150238	0.082903	0.336419	1584.908081
5149.151136	0.082936	0.336419	1659.384399
5149.152056	0.082958	0.336419	1735.705566
5150.192592	1.023849	0.338308	453.565063
5150.193574	0.524623	0.338308	968.744629
5150.194476	0.085074	0.338308	1045.481812
5150.195363	0.082939	0.338308	1119.049072
5150.196311	0.082969	0.338308	1197.703491
5150.197215	0.082998	0.338308	1272.733765
5150.198126	0.082958	0.338308	1348.308350
5150.199024	0.082921	0.338308	1422.771484
5150.199963	0.082928	0.338308	1500.641357
5150.200875	0.082917	0.338308	1576.262085
5150.201793	0.082896	0.338308	1652.360107
5150.202677	0.083005	0.338308	1725.736816
5151.251399	1.003733	0.338792	436.623810
5151.252366	0.554586	0.338792	972.908691
5151.253280	0.085415	0.338792	1050.978027
5151.254178	0.082932	0.338792	1125.451050
5151.255080	0.082852	0.338792	1200.183105
5151.256004	0.083057	0.338792	1276.927490
5151.256916	0.082906	0.338792	1352.538208
5151.257810	0.082870	0.338792	1426.623901
5151.258756	0.082914	0.338792	1505.060425
5151.259652	0.082932	0.338792	1579.367676
5151.260555	0.083009	0.338792	1654.324829
5151.261452	0.082917	0.338792	1728.701782
5152.302080	1.068519	0.335722	522.505920
5152.303007	0.533016	0.335722	1016.612122
5152.303911	0.085316	0.335722	1093.737915
5152.304799	0.082833	0.335722	1167.293823
5152.305746	0.082998	0.335722	1245.892944
5152.306655	0.082903	0.335722	1321.251587
5152.307558	0.082881	0.335722	1396.093018
5152.308479	0.082947	0.335722	1472.487061
5152.309377	0.082994	0.335722	1547.015991
5152.310274	0.082833	0.335722	1621.317383
5152.311156	0.082947	0.335722	1694.476440
5152.312124	0.082910	0.335722	1774.733521
5153.360336	1.013632	0.339255	451.066040
5153.361229	0.639031	0.339255	1021.720520
5153.362199	0.085488	0.339255	1104.644165
5153.363111	0.082811	0.339255	1180.168091
5153.364004	0.082921	0.339255	1254.216675
5153.364928	0.082914	0.339255	1330.829102
5153.365838	0.082947	0.339255	1406.310669
5153.366739	0.082822	0.339255	1480.933472
5153.367634	0.082936	0.339255	1555.161011
5153.368567	0.082994	0.339255	1632.594727
5153.369475	0.082903	0.339255	1707.870483
5153.370383	0.082936	0.339255	1783.176147
5154.413523	1.013415	0.337905	449.956451
5154.414418	0.640356	0.337905	1023.075439
5154.415370	0.086012	0.337905	1104.958862
5154.416270	0.082965	0.337905	1179.627441
5154.417177	0.082921	0.337905	1254.836914
5154.418087	0.082896	0.337905	1330.271851
5154.419016	0.082939	0.337905	1407.322632
5154.419927	0.082925	0.337905	1482.867187
5154.420823	0.082874	0.337905	1557.121826
5154.421756	0.082958	0.337905	1634.521484
5154.422653	0.082965	0.337905	1708.941162
5154.423550	0.082932	0.337905	1783.331299
5155.468744	0.998507	0.342272	430.356567
5155.469704	0.597437	0.342272	1003.895630
5155.470617	0.085844	0.342272	1082.270752
5155.471507	0.082925	0.342272	1156.073853
5155.472435	0.082976	0.342272	1233.075684
5155.473357	0.082885	0.342272	1309.495239
5155.474278	0.082961	0.342272	1385.902710
5155.475166	0.082932	0.342272	1459.546387
5155.476108	0.082914	0.342272	1537.651245
5155.477015	0.082896	0.342272	1612.837402
5155.477926	0.082947	0.342272	1688.401855
5155.478828	0.082950	0.342272	1763.223145
5156.524495	1.008516	0.331484	446.772400
5156.525462	0.542813	0.331484	971.672119
5156.526375	0.085236	0.331484	1049.492187
5156.527277	0.082899	0.331484	1124.267212
5156.528169	0.082928	0.331484	1198.239380
5156.529119	0.082921	0.331484	1277.014404
5156.530018	0.082961	0.331484	1351.596680
5156.530908	0.082991	0.331484	1425.458374
5156.531832	0.083002	0.331484	1502.151978
5156.532741	0.082914	0.331484	1577.520630
5156.533635	0.082954	0.331484	1651.681641
5156.534518	0.082943	0.331484	1724.920410
5157.575623	1.006516	0.345555	439.847534
5157.576530	0.644850	0.345555	1024.726318
5157.577417	0.087455	0.345555	1102.298706
5157.578376	0.082932	0.345555	1181.830566
5157.579276	0.082958	0.345555	1256.492554
5157.580177	0.082961	0.345555	1331.240845
5157.581067	0.082917	0.345555	1405.037354
5157.581999	0.082925	0.345555	1482.323242
5157.582910	0.082881	0.345555	1557.827759
5157.583813	0.082921	0.345555	1632.705566
5157.584744	0.083005	0.345555	1709.983521
5157.585647	0.082939	0.345555	1784.877808
5158.636492	1.008131	0.333067	443.577637
5158.637388	0.640642	0.333067	1017.592957
5158.638337	0.085844	0.333067	1099.058472
5158.639251	0.082841	0.333067	1174.774780
5158.640156	0.082852	0.333067	1249.755493
5158.641083	0.082943	0.333067	1326.643799
5158.641986	0.082947	0.333067	1401.544678
5158.642897	0.082848	0.333067	1477.019165
5158.643789	0.082939	0.333067	1551.001221
5158.644731	0.082998	0.333067	1629.185425
5158.645637	0.082881	0.333067	1704.275513
5158.646535	0.082863	0.333067	1778.686035
5159.682524	1.022651	0.347928	459.170502
5159.683429	0.625496	0.347928	1025.244019
5159.684366	0.086964	0.347928	1106.729370
5159.685281	0.082939	0.347928	1182.619019
5159.686173	0.082822	0.347928	1256.496460
5159.687061	0.082910	0.347928	1330.120728
5159.688006	0.082899	0.347928	1408.460449
5159.688913	0.082939	0.347928	1483.686523
5159.689820	0.082903	0.347928	1558.879395
5159.690708	0.082910	0.347928	1632.503662
5159.691650	0.082928	0.347928	1710.622314
5159.692552	0.082870	0.347928	1785.370972
5160.748003	1.028353	0.331601	466.872406
5160.748923	0.594386	0.331601	1013.707520
5160.749820	0.086243	0.331601	1091.067139
5160.750705	0.082888	0.331601	1164.423218
5160.751653	0.082950	0.331601	1243.060181
5160.752565	0.082917	0.331601	1318.680908
5160.753461	0.082958	0.331601	1393.011108
5160.754380	0.083027	0.331601	1469.313232
5160.755280	0.082961	0.331601	1543.978516
5160.756180	0.082830	0.331601	1618.525146
5160.757068	0.082928	0.331601	1692.165649
5160.758009	0.082972	0.331601	1770.242676
5161.788881	1.010746	0.353515	449.781921
5161.789795	0.630787	0.353515	1026.321533
5161.790724	0.086041	0.353515	1106.253906
5161.791613	0.082921	0.353515	1179.970825
5161.792579	0.082921	0.353515	1260.072632
5161.793480	0.082921	0.353515	1334.784546
5161.794371	0.082943	0.353515	1408.686890
5161.795311	0.082936	0.353515	1486.646484
5161.796205	0.082881	0.353515	1560.741943
5161.797126	0.083024	0.353515	1637.206787
5161.798019	0.082939	0.353515	1711.271729
5161.798980	0.082972	0.353515	1791.008179
5162.859465	1.003707	0.336290	438.620087
5162.860360	0.648190	0.336290	1018.749878
5162.861317	0.085902	0.336290	1100.958252
5162.862226	0.082896	0.336290	1176.310303
5162.863116	0.082899	0.336290	1250.090576
5162.864052	0.082914	0.336290	1327.697876
5162.864959	0.082954	0.336290	1402.937256
5162.865860	0.082910	0.336290	1477.639282
5162.866758	0.082943	0.336290	1552.122192
5162.867696	0.082899	0.336290	1629.881592
5162.868603	0.082976	0.336290	1705.140869
5162.869508	0.082852	0.336290	1780.121582
5163.896261	1.000741	0.351034	434.321594
5163.897191	0.632886	0.351034	1022.905334
5163.898117	0.085741	0.351034	1102.301514
5163.899029	0.082771	0.351034	1177.788696
5163.899928	0.082885	0.351034	1252.301880
5163.900859	0.082910	0.351034	1329.491211
5163.901767	0.082896	0.351034	1404.760376
5163.902670	0.082914	0.351034	1479.631592
5163.903561	0.082866	0.351034	1553.465332
5163.904503	0.082958	0.351034	1631.611572
5163.905410	0.082932	0.351034	1706.831055
5163.906297	0.082958	0.351034	1780.414551
5164.970490	1.024340	0.330574	497.829071
5164.971413	0.547299	0.330574	1002.985596
5164.972322	0.085353	0.330574	1080.571289
5164.973218	0.082830	0.330574	1154.786621
5164.974160	0.082899	0.330574	1232.877686
5164.975060	0.082888	0.330574	1307.477051
5164.975953	0.082950	0.330574	1381.551758
5164.976843	0.082950	0.330574	1455.377686
5164.977785	0.082961	0.330574	1533.527344
5164.978696	0.082896	0.330574	1609.045166
5164.979597	0.082804	0.330574	1683.651489
5164.980536	0.082917	0.330574	1761.510986
5166.005254	1.055347	0.351847	524.507324
5166.006169	0.539073	0.351847	1017.759521
5166.007063	0.085437	0.351847	1094.140259
5166.007998	0.082881	0.351847	1171.633911
5166.008912	0.082855	0.351847	1247.363525
5166.009829	0.082947	0.351847	1323.425781
5166.010722	0.082969	0.351847	1397.516846
5166.011662	0.082936	0.351847	1475.476440
5166.012560	0.082943	0.351847	1549.959351
5166.013472	0.082928	0.351847	1625.590088
5166.014365	0.082896	0.351847	1699.615723
5166.015315	0.082819	0.351847	1778.293457
5167.079883	1.007249	0.333285	441.174866
5167.080872	0.522125	0.333285	957.556702
5167.081782	0.085085	0.333285	1034.984497
5167.082686	0.082800	0.333285	1109.835937
5167.083609	0.082910	0.333285	1186.362061
5167.084515	0.082921	0.333285	1261.488647
5167.085422	0.082833	0.333285	1336.618408
5167.086314	0.082859	0.333285	1410.528564
5167.087259	0.082899	0.333285	1488.868286
5167.088152	0.082961	0.333285	1562.952881
5167.089058	0.082899	0.333285	1638.059570
5167.089948	0.082888	0.333285	1711.830078
5168.114651	1.021626	0.349845	460.753326
5168.115551	0.626049	0.349845	1024.197021
5168.116437	0.087089	0.349845	1101.357544
5168.117388	0.082852	0.349845	1180.149414
5168.118302	0.082844	0.349845	1255.869019
5168.119203	0.082877	0.349845	1330.541382
5168.120117	0.082866	0.349845	1406.281128
5168.121029	0.082976	0.349845	1481.955322
5168.121939	0.082863	0.349845	1557.360229
5168.122832	0.082906	0.349845	1631.395752
5168.123763	0.082903	0.349845	1708.578247
5168.124662	0.082896	0.349845	1783.101318
5169.188811	1.004733	0.338993	441.077606
5169.189704	0.646674	0.338993	1018.557129
5169.190662	0.085869	0.338993	1100.819824
5169.191564	0.082859	0.338993	1175.558594
5169.192457	0.082925	0.338993	1249.610474
5169.193395	0.082939	0.338993	1327.407715
5169.194296	0.083009	0.338993	1402.198853
5169.195210	0.082881	0.338993	1477.951904
5169.196110	0.082954	0.338993	1552.610596
5169.197036	0.082936	0.338993	1629.409180
5169.197948	0.082899	0.338993	1705.013184
5169.198851	0.082885	0.338993	1779.857910
5170.226135	1.011852	0.349265	458.368866
5170.227032	0.630341	0.349265	1023.784424
5170.227999	0.086880	0.349265	1107.797241
5170.228925	0.082899	0.349265	1184.561890
5170.229840	0.082906	0.349265	1260.421387
5170.230736	0.082881	0.349265	1334.682617
5170.231689	0.082903	0.349265	1413.688965
5170.232597	0.082896	0.349265	1488.958130
5170.233488	0.082925	0.349265	1562.844116
5170.234422	0.082881	0.349265	1640.254883
5170.235339	0.082855	0.349265	1716.233154
5170.236257	0.082932	0.349265	1792.364868
5171.296788	1.074148	0.337337	548.889587
5171.297708	0.516130	0.337337	1023.729553
5171.298611	0.085104	0.337337	1100.578247
5171.299501	0.082870	0.337337	1174.332397
5171.300437	0.082994	0.337337	1252.015137
5171.301345	0.082976	0.337337	1327.357422
5171.302240	0.082950	0.337337	1401.598022
5171.303166	0.082958	0.337337	1478.416870
5171.304069	0.082936	0.337337	1553.307861
5171.304976	0.082914	0.337337	1628.510742
5171.305881	0.082950	0.337337	1703.580933
5171.306825	0.082972	0.337337	1781.906860
5172.335565	1.007582	0.349559	442.328369
5172.336518	0.608683	0.349559	1022.403137
5172.337431	0.085499	0.349559	1100.463989
5172.338335	0.082906	0.349559	1175.411499
5172.339222	0.082859	0.349559	1248.907349
5172.340181	0.082969	0.349559	1328.474365
5172.341080	0.082903	0.349559	1403.004028
5172.341976	0.082885	0.349559	1477.268555
5172.342864	0.082921	0.349559	1550.902588
5172.343806	0.082958	0.349559	1629.048828
5172.344709	0.082892	0.349559	1703.900146
5172.345608	0.082917	0.349559	1778.442993
5173.404111	1.012848	0.343525	446.665924
5173.405017	0.635955	0.343525	1022.840698
5173.405903	0.087371	0.343525	1100.251099
5173.406860	0.082877	0.343525	1179.564575
5173.407769	0.082837	0.343525	1254.863281
5173.408664	0.082921	0.343525	1329.077637
5173.409575	0.082892	0.343525	1404.592163
5173.410499	0.082954	0.343525	1481.241699
5173.411408	0.082866	0.343525	1556.567139
5173.412311	0.082852	0.343525	1631.382080
5173.413233	0.082885	0.343525	1707.801636
5173.414121	0.082885	0.343525	1781.403076
5174.447570	1.013335	0.347001	446.880737
5174.448484	0.628707	0.347001	1021.519165
5174.449369	0.087187	0.347001	1098.680054
5174.450326	0.082896	0.347001	1178.010986
5174.451239	0.082877	0.347001	1253.677856
5174.452134	0.082877	0.347001	1327.852905
5174.453020	0.082892	0.347001	1401.295044
5174.453955	0.082892	0.347001	1478.798950
5174.454853	0.082899	0.347001	1553.242432
5174.455744	0.082917	0.347001	1627.121948
5174.456671	0.082906	0.347001	1703.976318
5174.457582	0.082906	0.347001	1779.504150
5175.513097	1.073218	0.343436	536.608887
5175.514023	0.525568	0.343436	1023.284546
5175.514923	0.085250	0.343436	1100.009766
5175.515810	0.082906	0.343436	1173.547852
5175.516742	0.082914	0.343436	1250.823486
5175.517655	0.082859	0.343436	1326.473633
5175.518549	0.082841	0.343436	1400.533081
5175.519475	0.082870	0.343436	1477.270630
5175.520382	0.082954	0.343436	1552.510010
5175.521275	0.082841	0.343436	1626.486694
5175.522170	0.082848	0.343436	1700.635620
5175.523109	0.082939	0.343436	1778.515747
5176.557020	1.025592	0.350715	460.490845
5176.557926	0.624635	0.350715	1026.410156
5176.558814	0.087052	0.350715	1103.712280
5176.559787	0.082969	0.350715	1184.440918
5176.560688	0.082969	0.350715	1259.195801
5176.561586	0.082976	0.350715	1333.708252
5176.562472	0.082925	0.350715	1407.179687
5176.563407	0.082987	0.350715	1484.772583
5176.564305	0.082819	0.350715	1559.143677
5176.565204	0.082914	0.350715	1633.683228
5176.566137	0.082976	0.350715	1711.099854
5176.567041	0.082958	0.350715	1786.093628
5177.621451	1.002697	0.347622	438.178375
5177.622347	0.639979	0.347622	1011.599731
5177.623305	0.085917	0.347622	1093.907959
5177.624213	0.082808	0.347622	1169.097290
5177.625105	0.082917	0.347622	1243.059692
5177.626043	0.082936	0.347622	1320.853516
5177.626944	0.082939	0.347622	1395.581909
5177.627845	0.082939	0.347622	1470.310303
5177.628735	0.082914	0.347622	1544.103638
5177.629672	0.082943	0.347622	1621.821289
5177.630582	0.082994	0.347622	1697.346191
5177.631490	0.082844	0.347622	1772.568726
5178.666999	1.064634	0.348387	513.153442
5178.667926	0.545369	0.348387	1018.710144
5178.668853	0.084906	0.348387	1097.417969
5178.669740	0.082896	0.348387	1170.946289
5178.670691	0.082888	0.348387	1249.772949
5178.671587	0.082822	0.348387	1323.981689
5178.672479	0.082917	0.348387	1397.944092
5178.673408	0.082848	0.348387	1474.909790
5178.674315	0.082844	0.348387	1550.049561
5178.675238	0.082874	0.348387	1626.541870
5178.676134	0.082881	0.348387	1700.803101
5178.677077	0.082874	0.348387	1778.952881
5179.730393	1.028503	0.345205	462.826538
5179.731306	0.612308	0.345205	1021.864014
5179.732214	0.086788	0.345205	1100.667847
5179.733138	0.082888	0.345205	1177.256592
5179.734048	0.082932	0.345205	1252.724854
5179.734938	0.082965	0.345205	1326.563721
5179.735878	0.082983	0.345205	1404.568115
5179.736785	0.082958	0.345205	1479.810791
5179.737697	0.082987	0.345205	1555.494995
5179.738587	0.082892	0.345205	1629.268799
5179.739544	0.083020	0.345205	1708.718994
5179.740451	0.082965	0.345205	1783.968262
5180.776925	1.031807	0.351022	465.344818
5180.777840	0.606628	0.351022	1020.409790
5180.778731	0.086737	0.351022	1097.692505
5180.779682	0.082947	0.351022	1176.574951
5180.780595	0.082980	0.351022	1252.335449
5180.781485	0.082961	0.351022	1326.171143
5180.782409	0.083053	0.351022	1402.912109
5180.783313	0.083049	0.351022	1477.988647
5180.784215	0.082980	0.351022	1552.836426
5180.785105	0.083005	0.351022	1626.711182
5180.786054	0.082969	0.351022	1705.448486
5180.786956	0.082921	0.351022	1780.243408
5181.839829	1.013606	0.350389	450.041046
5181.840730	0.641807	0.350389	1028.308838
5181.841620	0.087319	0.350389	1106.023071
5181.842592	0.082925	0.350389	1186.625977
5181.843488	0.082932	0.350389	1260.933105
5181.844387	0.082859	0.350389	1335.423218
5181.845273	0.082914	0.350389	1408.884888
5181.846217	0.082972	0.350389	1487.210815
5181.847116	0.082859	0.350389	1561.700928
5181.848014	0.082870	0.350389	1636.118042
5181.848951	0.082910	0.350389	1713.804810
5181.849861	0.082950	0.350389	1789.289673
5182.885378	1.038343	0.349177	513.979980
5182.886310	0.514259	0.349177	993.269409
5182.887208	0.085023	0.349177	1069.620239
5182.888103	0.082811	0.349177	1143.736328
5182.889063	0.082972	0.349177	1223.389893
5182.889964	0.082885	0.349177	1298.068848
5182.890862	0.082863	0.349177	1372.479370
5182.891749	0.082885	0.349177	1445.997925
5182.892691	0.083027	0.349177	1524.209717
5182.893593	0.082899	0.349177	1598.984741
5182.894488	0.082877	0.349177	1673.159790
5182.895404	0.082921	0.349177	1749.115601
5183.949775	1.011852	0.345233	446.226624
5183.950680	0.640038	0.345233	1025.460937
5183.951566	0.087506	0.345233	1102.991333
5183.952503	0.082914	0.345233	1180.681641
5183.953415	0.082917	0.345233	1256.302368
5183.954308	0.082899	0.345233	1330.331299
5183.955195	0.082903	0.345233	1403.866089
5183.956133	0.083013	0.345233	1481.731934
5183.957041	0.082892	0.345233	1556.997681
5183.957938	0.082896	0.345233	1631.354980
5183.958831	0.082976	0.345233	1705.452637
5183.959780	0.082936	0.345233	1784.158691
5184.994759	1.010559	0.351928	442.624878
5184.995737	0.549082	0.351928	979.627136
5184.996641	0.085459	0.351928	1056.882080
5184.997538	0.082881	0.351928	1131.226196
5184.998459	0.083009	0.351928	1207.677490
5184.999367	0.082947	0.351928	1282.993164
5185.000276	0.082917	0.351928	1358.365112
5185.001175	0.082874	0.351928	1432.868408
5185.002112	0.082987	0.351928	1510.627319
5185.003016	0.082976	0.351928	1585.637695
5185.003920	0.082936	0.351928	1660.611694
5185.004803	0.082936	0.351928	1733.843994
5186.060245	1.021117	0.347158	456.439301
5186.061143	0.635581	0.347158	1027.191162
5186.062082	0.086052	0.347158	1107.994263
5186.062991	0.082833	0.347158	1183.289673
5186.063896	0.082965	0.347158	1258.373047
5186.064783	0.082987	0.347158	1331.982544
5186.065739	0.082954	0.347158	1411.286621
5186.066645	0.082939	0.347158	1486.429810
5186.067539	0.082917	0.347158	1560.557983
5186.068472	0.082943	0.347158	1637.943848
5186.069375	0.082991	0.347158	1712.884521
5186.070275	0.082961	0.347158	1787.549805
5187.102671	1.014822	0.355239	447.536407
5187.103582	0.629722	0.355239	1021.212769
5187.104472	0.087125	0.355239	1098.754272
5187.105427	0.082914	0.355239	1177.937012
5187.106335	0.083002	0.355239	1253.302612
5187.107238	0.082914	0.355239	1328.173828
5187.108143	0.082903	0.355239	1403.200928
5187.109070	0.082921	0.355239	1480.068848
5187.109979	0.082936	0.355239	1555.457520
5187.110871	0.082950	0.355239	1629.449341
5187.111796	0.082980	0.355239	1706.205566
5187.112706	0.082932	0.355239	1781.673828
5188.170697	1.005059	0.348677	441.220734
5188.171590	0.645026	0.348677	1017.228638
5188.172557	0.085811	0.348677	1100.207397
5188.173455	0.082881	0.348677	1174.634399
5188.174342	0.082936	0.348677	1248.198486
5188.175267	0.082987	0.348677	1324.961548
5188.176184	0.082939	0.348677	1401.017090
5188.177087	0.082815	0.348677	1475.798950
5188.177976	0.082906	0.348677	1549.502808
5188.178910	0.082976	0.348677	1627.002441
5188.179814	0.082830	0.348677	1701.880371
5188.180715	0.082976	0.348677	1776.641846
5189.211084	1.010057	0.355839	444.425232
5189.212040	0.576024	0.355839	995.104370
5189.212957	0.085682	0.355839	1073.675049
5189.213847	0.082855	0.355839	1147.416260
5189.214773	0.082914	0.355839	1224.194458
5189.215682	0.082914	0.355839	1299.563110
5189.216584	0.082906	0.355839	1374.344727
5189.217476	0.082899	0.355839	1448.290771
5189.218469	0.082932	0.355839	1530.642334
5189.219368	0.082888	0.355839	1605.158813
5189.220272	0.082932	0.355839	1680.129395
5189.221159	0.082925	0.355839	1753.683716
5190.282194	1.016737	0.345136	451.431213
5190.283118	0.609899	0.345136	1014.977600
5190.284017	0.086495	0.345136	1092.736938
5190.284957	0.082954	0.345136	1170.713745
5190.285860	0.082936	0.345136	1245.604736
5190.286758	0.082961	0.345136	1320.104126
5190.287646	0.082888	0.345136	1393.708862
5190.288571	0.083005	0.345136	1470.488770
5190.289478	0.082906	0.345136	1545.684937
5190.290375	0.082928	0.345136	1620.071777
5190.291301	0.083020	0.345136	1696.948364
5190.292216	0.083042	0.345136	1772.931763
5191.318996	1.013342	0.358889	447.897278
5191.319904	0.633248	0.358889	1022.886780
5191.320795	0.087158	0.358889	1100.544678
5191.321747	0.082932	0.358889	1179.496094
5191.322650	0.082961	0.358889	1254.410278
5191.323552	0.082885	0.358889	1329.172119
5191.324471	0.082976	0.358889	1405.427124
5191.325358	0.082888	0.358889	1478.948975
5191.326323	0.082936	0.358889	1558.982056
5191.327220	0.082870	0.358889	1633.316284
5191.328145	0.082881	0.358889	1709.981079
5191.329046	0.082874	0.358889	1784.650146
5192.391642	1.022765	0.345793	454.107635
5192.392570	0.601267	0.345793	1012.083496
5192.393470	0.086239	0.345793	1089.698608
5192.394399	0.082844	0.345793	1166.660889
5192.395324	0.082943	0.345793	1243.383301
5192.396230	0.082859	0.345793	1318.453491
5192.397128	0.082885	0.345793	1392.883789
5192.398074	0.082943	0.345793	1471.348022
5192.398978	0.082859	0.345793	1546.252441
5192.399873	0.082939	0.345793	1620.483276
5192.400758	0.082896	0.345793	1693.845825
5192.401698	0.083064	0.345793	1771.925903
5193.427406	1.010087	0.358047	444.438141
5193.428382	0.551082	0.358047	982.293701
5193.429298	0.085313	0.358047	1060.439941
5193.430189	0.082793	0.358047	1134.208496
5193.431121	0.082954	0.358047	1211.521729
5193.432028	0.082892	0.358047	1286.704590
5193.432933	0.082874	0.358047	1361.705078
5193.433821	0.082848	0.358047	1435.274048
5193.434768	0.082881	0.358047	1513.762207
5193.435676	0.082855	0.358047	1588.994751
5193.436579	0.082939	0.358047	1663.889038
5193.437472	0.082896	0.358047	1737.914673
5194.501580	1.007688	0.344512	442.375000
5194.502500	0.625466	0.344512	1017.804016
5194.503405	0.086429	0.344512	1096.022705
5194.504336	0.082870	0.344512	1173.174561
5194.505241	0.082903	0.344512	1248.201660
5194.506139	0.082833	0.344512	1322.585937
5194.507027	0.082819	0.344512	1396.128906
5194.507983	0.082921	0.344512	1475.401489
5194.508879	0.082888	0.344512	1549.669312
5194.509786	0.082874	0.344512	1624.835571
5194.510678	0.082841	0.344512	1698.729370
5194.511632	0.082917	0.344512	1777.832642
5195.536856	1.003356	0.363062	440.473114
5195.537812	0.563800	0.363062	979.465942
5195.538710	0.085822	0.363062	1056.533691
5195.539610	0.082874	0.363062	1131.119873
5195.540495	0.082877	0.363062	1204.466187
5195.541434	0.082914	0.363062	1282.322266
5195.542336	0.082863	0.363062	1357.064331
5195.543233	0.082841	0.363062	1431.372314
5195.544164	0.082881	0.363062	1508.534424
5195.545069	0.082925	0.363062	1583.581421
5195.545968	0.082837	0.363062	1658.051758
5195.546855	0.082837	0.363062	1731.528076
5196.611021	1.010054	0.346228	446.443756
5196.611988	0.538129	0.346228	966.814209
5196.612902	0.085060	0.346228	1044.558838
5196.613824	0.082793	0.346228	1120.893921
5196.614716	0.082877	0.346228	1194.820435
5196.615669	0.082848	0.346228	1273.774536
5196.616568	0.082793	0.346228	1348.205444
5196.617457	0.082881	0.346228	1421.886475
5196.618395	0.082870	0.346228	1499.618408
5196.619308	0.082870	0.346228	1575.278564
5196.620223	0.082888	0.346228	1651.121216
5196.621111	0.082888	0.346228	1724.725952
5197.646789	1.000800	0.361833	434.346985
5197.647726	0.624708	0.361833	1019.698608
5197.648639	0.086393	0.361833	1098.575195
5197.649535	0.082797	0.361833	1172.760986
5197.650421	0.082903	0.361833	1246.212891
5197.651357	0.082914	0.361833	1323.820190
5197.652273	0.082881	0.361833	1399.739014
5197.653175	0.082885	0.361833	1474.500854
5197.654064	0.082841	0.361833	1548.146118
5197.655018	0.082961	0.361833	1627.291260
5197.655916	0.082863	0.361833	1701.701782
5197.656804	0.082870	0.361833	1775.290283
5198.719432	1.004846	0.344612	440.122650
5198.720357	0.626814	0.344612	1019.925659
5198.721292	0.085854	0.344612	1100.199585
5198.722199	0.082870	0.344612	1175.362549
5198.723091	0.082896	0.344612	1249.305298
5198.724028	0.082863	0.344612	1326.947510
5198.724940	0.082939	0.344612	1402.588257
5198.725850	0.082874	0.344612	1478.003174
5198.726742	0.082881	0.344612	1551.932861
5198.727684	0.082859	0.344612	1629.985962
5198.728590	0.082830	0.344612	1705.029541
5198.729485	0.082906	0.344612	1779.230835
5199.758297	1.027119	0.363167	462.203613
5199.759203	0.623727	0.363167	1027.300049
5199.760093	0.086920	0.363167	1104.658936
5199.761054	0.082892	0.363167	1184.317993
5199.761961	0.082833	0.363167	1259.447754
5199.762860	0.082914	0.363167	1333.987305
5199.763806	0.082899	0.363167	1412.409912
5199.764710	0.082954	0.363167	1487.400391
5199.765606	0.082947	0.363167	1561.720703
5199.766492	0.082888	0.363167	1635.159668
5199.767429	0.082892	0.363167	1712.829346
5199.768335	0.082939	0.363167	1787.972534
5200.826867	1.017909	0.347948	485.542572
5200.827808	0.532643	0.347948	986.759521
5200.828716	0.085159	0.347948	1064.083618
5200.829613	0.082844	0.347948	1138.394897
5200.830553	0.082910	0.347948	1216.330444
5200.831458	0.082910	0.347948	1291.364136
5200.832357	0.082903	0.347948	1365.893799
5200.833242	0.082950	0.347948	1439.304932
5200.834180	0.082998	0.347948	1517.157104
5200.835091	0.082874	0.347948	1592.654907
5200.835988	0.082899	0.347948	1667.015503
5200.836916	0.082932	0.347948	1743.976562
5201.869290	1.023820	0.363920	483.242828
5201.870205	0.571630	0.363920	1006.283936
5201.871150	0.085858	0.363920	1087.419922
5201.872066	0.082822	0.363920	1163.285156
5201.872982	0.082896	0.363920	1239.217407
5201.873869	0.082939	0.363920	1312.784668
5201.874818	0.082932	0.363920	1391.487305
5201.875715	0.082910	0.363920	1465.857666
5201.876637	0.082899	0.363920	1542.290649
5201.877531	0.082903	0.363920	1616.405762
5201.878493	0.082804	0.363920	1696.063232
5201.879396	0.082855	0.363920	1770.881470
5202.933755	1.024153	0.350474	495.689941
5202.934683	0.542677	0.350474	999.294189
5202.935583	0.085353	0.350474	1076.111694
5202.936475	0.082885	0.350474	1150.044678
5202.937424	0.082980	0.350474	1228.792480
5202.938330	0.082939	0.350474	1303.935669
5202.939238	0.082917	0.350474	1379.224731
5202.940132	0.082947	0.350474	1453.379150
5202.941071	0.082994	0.350474	1531.310913
5202.941969	0.082910	0.350474	1605.764282
5202.942863	0.082899	0.350474	1679.876099
5202.943815	0.082976	0.350474	1758.869385
5203.980763	1.025398	0.359767	459.378296
5203.981685	0.598704	0.359767	1011.383057
5203.982582	0.086224	0.359767	1088.726318
5203.983513	0.082906	0.359767	1165.912231
5203.984421	0.082841	0.359767	1241.131470
5203.985322	0.082800	0.359767	1315.734497
5203.986208	0.082830	0.359767	1389.121460
5203.987156	0.082917	0.359767	1467.727173
5203.988060	0.082822	0.359767	1542.598511
5203.988948	0.082833	0.359767	1616.154419
5203.989875	0.082859	0.359767	1692.964600
5203.990789	0.082961	0.359767	1768.791382
5205.041622	1.019817	0.351030	459.937469
5205.042518	0.631395	0.351030	1025.667603
5205.043461	0.086177	0.351030	1106.932251
5205.044367	0.082921	0.351030	1182.058838
5205.045268	0.082921	0.351030	1256.770752
5205.046160	0.082928	0.351030	1330.742920
5205.047112	0.082950	0.351030	1409.711670
5205.048018	0.082896	0.351030	1484.814941
5205.048913	0.082925	0.351030	1559.032593
5205.049842	0.082896	0.351030	1636.042480
5205.050742	0.082969	0.351030	1710.714355
5205.051651	0.082914	0.351030	1786.083008
5206.092238	1.007622	0.360158	443.353668
5206.093183	0.603190	0.360158	1013.367920
5206.094085	0.085833	0.360158	1090.788818
5206.094985	0.082888	0.360158	1165.388184
5206.095876	0.082950	0.360158	1239.296997
5206.096805	0.082994	0.360158	1316.398804
5206.097712	0.082928	0.360158	1391.614868
5206.098616	0.082910	0.360158	1466.565674
5206.099505	0.082987	0.360158	1540.341187
5206.100446	0.082972	0.360158	1618.418213
5206.101354	0.082797	0.360158	1693.597534
5206.102249	0.082881	0.360158	1767.775879
5207.149009	1.008929	0.354329	446.955750
5207.149977	0.546031	0.354329	975.514221
5207.150883	0.085415	0.354329	1052.900269
5207.151781	0.082863	0.354329	1127.310791
5207.152667	0.082932	0.354329	1200.788696
5207.153599	0.082925	0.354329	1278.074585
5207.154509	0.082859	0.354329	1353.476196
5207.155406	0.082896	0.354329	1427.833496
5207.156336	0.083009	0.354329	1505.031860
5207.157236	0.082939	0.354329	1579.677368
5207.158140	0.082903	0.354329	1654.621582
5207.159029	0.082950	0.354329	1728.364502
5208.203791	1.047960	0.357713	528.171936
5208.204712	0.510363	0.357713	998.215820
5208.205652	0.084525	0.357713	1077.669434
5208.206539	0.082852	0.357713	1151.158813
5208.207490	0.082896	0.357713	1229.992432
5208.208387	0.082863	0.357713	1304.320190
5208.209307	0.082885	0.357713	1380.573975
5208.210192	0.082983	0.357713	1454.014282
5208.211141	0.082925	0.357713	1532.709961
5208.212043	0.082932	0.357713	1607.514771
5208.212932	0.082925	0.357713	1681.234863
5208.213861	0.082833	0.357713	1758.187012
5209.257421	1.009717	0.354139	442.255951
5209.258335	0.631575	0.354139	1019.515259
5209.259222	0.087012	0.354139	1096.694702
5209.260175	0.082936	0.354139	1175.732544
5209.261082	0.082852	0.354139	1250.878906
5209.261977	0.082932	0.354139	1325.103149
5209.262863	0.082874	0.354139	1398.529053
5209.263789	0.082928	0.354139	1475.320801
5209.264688	0.082870	0.354139	1549.820801
5209.265579	0.082892	0.354139	1623.677490
5209.266510	0.082943	0.354139	1700.897583
5209.267425	0.082914	0.354139	1776.763672
5210.313695	1.027123	0.358998	461.178162
5210.314597	0.626400	0.358998	1026.191162
5210.315485	0.087030	0.358998	1103.473877
5210.316441	0.082888	0.358998	1182.714966
5210.317331	0.082939	0.358998	1256.531128
5210.318236	0.082888	0.358998	1331.544922
5210.319141	0.082947	0.358998	1406.611816
5210.320074	0.082921	0.358998	1483.977295
5210.320983	0.082910	0.358998	1559.342651
5210.321889	0.082928	0.358998	1634.475830
5210.322819	0.082958	0.358998	1711.626587
5210.323719	0.082914	0.358998	1786.249023
5211.365323	1.005209	0.359723	442.291840
5211.366292	0.548950	0.359723	974.224609
5211.367194	0.085598	0.359723	1051.434082
5211.368095	0.082848	0.359723	1126.080078
5211.368983	0.082925	0.359723	1199.717285
5211.369918	0.082906	0.359723	1277.234863
5211.370830	0.082932	0.359723	1352.869019
5211.371726	0.082903	0.359723	1427.149902
5211.372656	0.082950	0.359723	1504.293823
5211.373559	0.082958	0.359723	1579.204712
5211.374463	0.082928	0.359723	1654.171997
5211.375350	0.082921	0.359723	1727.723022
5212.422663	1.066421	0.358434	532.144043
5212.423583	0.537253	0.358434	1026.417114
5212.424478	0.085323	0.358434	1102.781616
5212.425366	0.082877	0.358434	1176.376587
5212.426296	0.082958	0.358434	1253.527344
5212.427205	0.082921	0.358434	1328.902710
5212.428102	0.082925	0.358434	1403.286255
5212.429014	0.082943	0.358434	1478.930420
5212.429930	0.082987	0.358434	1554.946533
5212.430838	0.082917	0.358434	1630.235596
5212.431733	0.082947	0.358434	1704.472900
5212.432672	0.082921	0.358434	1782.335815
5213.474275	1.016532	0.357676	458.455902
5213.475180	0.623668	0.357676	1022.875610
5213.476065	0.086916	0.357676	1099.796753
5213.477007	0.082910	0.357676	1177.898071
5213.477913	0.082925	0.357676	1253.027954
5213.478834	0.082906	0.357676	1329.384888
5213.479731	0.082892	0.357676	1403.738892
5213.480685	0.082859	0.357676	1482.786255
5213.481583	0.082855	0.357676	1557.190186
5213.482475	0.082954	0.357676	1631.185303
5213.483423	0.082932	0.357676	1709.804932
5213.484331	0.082830	0.357676	1785.014160
5214.534102	1.014748	0.356806	454.607300
5214.534999	0.635973	0.356806	1025.074951
5214.535953	0.085774	0.356806	1106.903320
5214.536856	0.082841	0.356806	1181.708374
5214.537755	0.082881	0.356806	1256.218262
5214.538642	0.082870	0.356806	1329.723877
5214.539583	0.082983	0.356806	1407.811279
5214.540494	0.082888	0.356806	1483.322388
5214.541395	0.082888	0.356806	1558.004639
5214.542320	0.082936	0.356806	1634.720215
5214.543228	0.082921	0.356806	1710.012573
5214.544132	0.082888	0.356806	1784.943481
5215.583185	1.013646	0.361660	448.031647
5215.584085	0.646102	0.361660	1029.523682
5215.584975	0.087510	0.361660	1107.407349
5215.585912	0.082892	0.361660	1185.077026
5215.586832	0.082855	0.361660	1261.303833
5215.587729	0.082914	0.361660	1335.677490
5215.588642	0.082899	0.361660	1411.364380
5215.589561	0.082910	0.361660	1487.558838
5215.590469	0.082958	0.361660	1562.884521
5215.591365	0.082910	0.361660	1637.171997
5215.592296	0.082921	0.361660	1714.371582
5215.593197	0.082939	0.361660	1789.099976
5216.643586	1.071497	0.358941	529.319336
5216.644511	0.529669	0.358941	1019.263367
5216.645430	0.084855	0.358941	1097.244873
5216.646316	0.082830	0.358941	1170.631836
5216.647278	0.082877	0.358941	1250.359741
5216.648203	0.082881	0.358941	1327.024536
5216.649095	0.082881	0.358941	1400.954224
5216.650036	0.082925	0.358941	1478.986450
5216.650938	0.082848	0.358941	1553.715210
5216.651830	0.082844	0.358941	1627.612305
5216.652737	0.082892	0.358941	1702.795166
5216.653685	0.082881	0.358941	1781.366211
5217.692673	1.071387	0.360440	527.122253
5217.693595	0.546105	0.360440	1030.630859
5217.694490	0.085638	0.360440	1107.277222
5217.695377	0.082899	0.360440	1180.808838
5217.696320	0.082972	0.360440	1259.051758
5217.697219	0.082925	0.360440	1333.601196
5217.698110	0.082917	0.360440	1407.480713
5217.699052	0.082994	0.360440	1485.661377
5217.699963	0.082950	0.360440	1561.229248
5217.700859	0.082928	0.360440	1635.533203
5217.701769	0.082972	0.360440	1711.038086
5217.702698	0.082936	0.360440	1788.085449
5218.752465	1.010885	0.359002	445.800293
5218.753391	0.618098	0.359002	1018.159180
5218.754289	0.086624	0.359002	1095.947144
5218.755216	0.082939	0.359002	1172.832031
5218.756112	0.082972	0.359002	1247.175293
5218.757005	0.082987	0.359002	1321.282715
5218.757890	0.082899	0.359002	1394.648437
5218.758837	0.083046	0.359002	1473.292725
5218.759735	0.082939	0.359002	1547.772339
5218.760645	0.082903	0.359002	1623.213867
5218.761536	0.082936	0.359002	1697.109619
5218.762480	0.083071	0.359002	1775.528931
5219.802100	1.053351	0.364239	497.181580
5219.803021	0.564357	0.364239	1016.954102
5219.803920	0.085745	0.364239	1094.038574
5219.804808	0.082888	0.364239	1167.643311
5219.805760	0.082939	0.364239	1246.601685
5219.806666	0.082848	0.364239	1321.661865
5219.807552	0.082885	0.364239	1395.097534
5219.808492	0.082969	0.364239	1473.088135
5219.809399	0.082961	0.364239	1548.334106
5219.810295	0.082863	0.364239	1622.578979
5219.811182	0.082877	0.364239	1696.091064
5219.812124	0.082991	0.364239	1774.268311
5220.861904	1.012028	0.360706	450.352295
5220.862875	0.542926	0.360706	977.533447
5220.863773	0.085334	0.360706	1054.163818
5220.864690	0.082976	0.360706	1130.252930
5220.865585	0.082954	0.360706	1204.496826
5220.866533	0.082899	0.360706	1283.085205
5220.867432	0.082855	0.360706	1357.572021
5220.868322	0.082903	0.360706	1431.355591
5220.869250	0.082943	0.360706	1508.326782
5220.870169	0.082932	0.360706	1584.541382
5220.871089	0.082896	0.360706	1660.805298
5220.871976	0.082881	0.360706	1734.320679
5221.911498	1.008684	0.363598	443.820984
5221.912484	0.530914	0.363598	967.302490
5221.913381	0.085137	0.363598	1043.670166
5221.914272	0.082881	0.363598	1117.516968
5221.915202	0.083016	0.363598	1194.722168
5221.916109	0.082969	0.363598	1269.974854
5221.917014	0.082866	0.363598	1344.968750
5221.917903	0.082896	0.363598	1418.662842
5221.918853	0.082972	0.363598	1497.486572
5221.919758	0.082896	0.363598	1572.506958
5221.920649	0.082896	0.363598	1646.366821
5221.921582	0.083038	0.363598	1723.841553
5222.971863	1.020853	0.359650	453.258850
5222.972785	0.605977	0.359650	1011.969238
5222.973685	0.086301	0.359650	1089.640381
5222.974602	0.082885	0.359650	1165.645508
5222.975518	0.083024	0.359650	1241.695190
5222.976424	0.082896	0.359650	1316.798462
5222.977323	0.082983	0.359650	1391.400513
5222.978263	0.082917	0.359650	1469.342896
5222.979166	0.082870	0.359650	1544.174438
5222.980065	0.082947	0.359650	1618.743652
5222.980950	0.082925	0.359650	1692.132080
5222.981888	0.083035	0.359650	1770.018555
5224.020948	1.016558	0.362478	449.318512
5224.021905	0.564324	0.362478	989.376343
5224.022810	0.085763	0.362478	1066.991821
5224.023703	0.082804	0.362478	1140.935791
5224.024638	0.082947	0.362478	1218.490967
5224.025535	0.082965	0.362478	1292.910645
5224.026443	0.082899	0.362478	1368.183105
5224.027332	0.082892	0.362478	1441.873901
5224.028269	0.082965	0.362478	1519.612183
5224.029173	0.082921	0.362478	1594.572876
5224.030074	0.082910	0.362478	1669.274902
5224.030961	0.082863	0.362478	1742.773926
5225.080777	1.004114	0.360802	436.789459
5225.081724	0.598488	0.360802	1003.557129
5225.082641	0.085642	0.360802	1082.090942
5225.083537	0.082826	0.360802	1156.302979
5225.084424	0.082932	0.360802	1229.863770
5225.085369	0.082943	0.360802	1308.244995
5225.086277	0.082921	0.360802	1383.537354
5225.087175	0.082892	0.360802	1457.974243
5225.088062	0.082906	0.360802	1531.512329
5225.089005	0.082906	0.360802	1609.693115
5225.089907	0.082932	0.360802	1684.497925
5225.090797	0.082936	0.360802	1758.310791
5226.129873	1.011713	0.362591	449.200439
5226.130764	0.639210	0.362591	1018.736694
5226.131720	0.086074	0.362591	1101.023682
5226.132630	0.082863	0.362591	1176.428589
5226.133520	0.082917	0.362591	1250.225098
5226.134456	0.082936	0.362591	1327.853027
5226.135365	0.082958	0.362591	1403.261597
5226.136265	0.082939	0.362591	1477.907104
5226.137153	0.082903	0.362591	1551.524780
5226.138122	0.082965	0.362591	1631.917969
5226.139017	0.082991	0.362591	1706.194702
5226.139921	0.082954	0.362591	1781.185181
5227.190219	1.010478	0.361636	444.610535
5227.191198	0.562764	0.361636	995.556152
5227.192098	0.085283	0.361636	1072.311035
5227.193002	0.082877	0.361636	1147.232056
5227.193895	0.082950	0.361636	1221.306763
5227.194836	0.083049	0.361636	1299.456177
5227.195744	0.082994	0.361636	1374.815063
5227.196645	0.082980	0.361636	1449.579834
5227.197560	0.083020	0.361636	1525.543213
5227.198468	0.082965	0.361636	1600.875488
5227.199379	0.082939	0.361636	1676.433350
5227.200268	0.082987	0.361636	1750.208862
5228.239813	1.000898	0.363215	438.393524
5228.240702	0.662527	0.363215	1027.379883
5228.241643	0.086462	0.363215	1108.740967
5228.242568	0.082870	0.363215	1185.395630
5228.243469	0.082994	0.363215	1260.173584
5228.244362	0.082896	0.363215	1334.199219
5228.245309	0.082980	0.363215	1412.781006
5228.246213	0.082925	0.363215	1487.744995
5228.247104	0.082917	0.363215	1561.624512
5228.248040	0.082914	0.363215	1639.231812
5228.248952	0.082903	0.363215	1714.839233
5228.249849	0.082903	0.363215	1789.203125
5229.299157	1.018832	0.363263	454.398956
5229.300059	0.632043	0.363263	1024.502075
5229.300994	0.086514	0.363263	1105.392334
5229.301901	0.082885	0.363263	1180.568604
5229.302811	0.082874	0.363263	1255.983521
5229.303698	0.082881	0.363263	1329.498901
5229.304653	0.083002	0.363263	1408.765503
5229.305565	0.082877	0.363263	1484.349487
5229.306455	0.082980	0.363263	1558.201416
5229.307388	0.082972	0.363263	1635.614624
5229.308288	0.082969	0.363263	1710.286499
5229.309202	0.082906	0.363263	1786.062988
5230.349768	1.004213	0.364480	436.832489
5230.350701	0.616948	0.364480	1012.445190
5230.351619	0.085833	0.364480	1091.239502
5230.352513	0.082826	0.364480	1165.285889
5230.353400	0.082866	0.364480	1238.788208
5230.354353	0.082969	0.364480	1317.857422
5230.355259	0.082932	0.364480	1392.993896
5230.356163	0.082921	0.364480	1467.954590
5230.357053	0.082914	0.364480	1541.747925
5230.357997	0.082965	0.364480	1620.067017
5230.358905	0.082943	0.364480	1695.379395
5230.359795	0.082936	0.364480	1769.192261
5231.408616	1.032645	0.364907	473.984161
5231.409521	0.611514	0.364907	1027.404053
5231.410410	0.086682	0.364907	1104.464478
5231.411334	0.082921	0.364907	1181.083618
5231.412266	0.082939	0.364907	1258.383179
5231.413169	0.082928	0.364907	1333.267578
5231.414059	0.082939	0.364907	1407.083740
5231.414994	0.082921	0.364907	1484.614990
5231.415910	0.082932	0.364907	1560.580811
5231.416840	0.082921	0.364907	1637.697510
5231.417733	0.082994	0.364907	1711.811523
5231.418684	0.082896	0.364907	1790.645142
5232.459722	1.004850	0.365620	438.114563
5232.460619	0.633995	0.365620	1006.808411
5232.461591	0.085437	0.365620	1089.853149
5232.462497	0.082888	0.365620	1164.949829
5232.463384	0.082917	0.365620	1238.497681
5232.464331	0.083016	0.365620	1317.114136
5232.465240	0.082877	0.365620	1392.449463
5232.466131	0.082991	0.365620	1466.394165
5232.467061	0.083002	0.365620	1543.585693
5232.467967	0.082932	0.365620	1618.722168
5232.468877	0.082914	0.365620	1694.173706
5232.469780	0.082910	0.365620	1769.041626
5233.515981	1.010925	0.365874	444.807129
5233.516917	0.625521	0.365874	1030.294922
5233.517827	0.085931	0.365874	1108.492432
5233.518747	0.082800	0.365874	1184.668701
5233.519639	0.082874	0.365874	1258.591919
5233.520587	0.082958	0.365874	1337.235840
5233.521485	0.082874	0.365874	1411.656250
5233.522391	0.082976	0.365874	1486.832520
5233.523277	0.082885	0.365874	1560.268188
5233.524218	0.083027	0.365874	1638.396973
5233.525126	0.082863	0.365874	1713.636230
5233.526021	0.082855	0.365874	1787.791626
5234.571223	1.019718	0.363485	455.813965
5234.572124	0.633937	0.363485	1026.990967
5234.573011	0.087283	0.363485	1104.410767
5234.573954	0.082910	0.363485	1182.595093
5234.574866	0.082877	0.363485	1258.179077
5234.575767	0.082804	0.363485	1332.785400
5234.576656	0.082881	0.363485	1406.466431
5234.577611	0.082969	0.363485	1485.701538
5234.578515	0.082910	0.363485	1560.652344
5234.579405	0.082855	0.363485	1634.393555
5234.580354	0.082888	0.363485	1713.054443
5234.581255	0.082925	0.363485	1787.769653
5235.624399	1.010599	0.371832	445.674316
5235.625299	0.646688	0.371832	1027.693726
5235.626189	0.087539	0.371832	1105.603516
5235.627153	0.082928	0.371832	1185.546509
5235.628059	0.082958	0.371832	1260.706299
5235.628960	0.082987	0.371832	1335.477661
5235.629846	0.082899	0.371832	1408.926270
5235.630792	0.083075	0.371832	1487.515137
5235.631690	0.082910	0.371832	1561.968506
5235.632585	0.082932	0.371832	1636.192749
5235.633509	0.082969	0.371832	1712.855835
5235.634414	0.082994	0.371832	1787.965698
5236.682191	1.009526	0.361439	445.201141
5236.683088	0.649167	0.361439	1027.504395
5236.683975	0.087554	0.361439	1105.164551
5236.684947	0.082881	0.361439	1185.724731
5236.685848	0.082877	0.361439	1260.397095
5236.686738	0.082917	0.361439	1334.193604
5236.687676	0.082917	0.361439	1411.970215
5236.688587	0.082910	0.361439	1487.501343
5236.689477	0.082899	0.361439	1561.281616
5236.690396	0.082961	0.361439	1637.523193
5236.691308	0.082892	0.361439	1713.120605
5236.692215	0.082921	0.361439	1788.330078
5237.731794	1.008940	0.369596	441.915863
5237.732693	0.642228	0.369596	1019.278687
5237.733645	0.085704	0.369596	1100.869263
5237.734558	0.082859	0.369596	1176.519409
5237.735469	0.082936	0.369596	1252.073975
5237.736362	0.082870	0.369596	1326.076782
5237.737309	0.082859	0.369596	1404.544189
5237.738218	0.082877	0.369596	1479.879517
5237.739110	0.082826	0.369596	1553.760254
5237.740054	0.082859	0.369596	1631.979004
5237.740955	0.082899	0.369596	1706.671143
5237.741848	0.082888	0.369596	1780.690308
5238.793692	1.024940	0.360118	458.148285
5238.794621	0.599030	0.360118	1014.646729
5238.795513	0.086265	0.360118	1091.594849
5238.796442	0.082906	0.360118	1168.614990
5238.797358	0.082965	0.360118	1244.610962
5238.798262	0.082906	0.360118	1319.558472
5238.799158	0.082976	0.360118	1393.905029
5238.800093	0.082965	0.360118	1471.477417
5238.800998	0.082928	0.360118	1546.527710
5238.801900	0.082910	0.360118	1621.312622
5238.802787	0.082947	0.360118	1694.886475
5238.803730	0.082943	0.360118	1773.101807
5239.839738	1.033253	0.374748	502.160980
5239.840670	0.526754	0.374748	993.095825
5239.841573	0.085126	0.374748	1069.964355
5239.842463	0.082855	0.374748	1143.705566
5239.843412	0.082928	0.374748	1222.404663
5239.844315	0.082939	0.374748	1297.298950
5239.845213	0.082914	0.374748	1371.755615
5239.846101	0.082899	0.374748	1445.370117
5239.847035	0.082961	0.374748	1522.856079
5239.847944	0.082837	0.374748	1598.154785
5239.848842	0.082892	0.374748	1672.591675
5239.849777	0.082954	0.374748	1750.153809
5240.904659	1.021699	0.360657	457.721283
5240.905566	0.622566	0.360657	1022.388550
5240.906457	0.086927	0.360657	1099.840942
5240.907419	0.082874	0.360657	1179.565308
5240.908320	0.082932	0.360657	1254.287109
5240.909211	0.082885	0.360657	1328.137207
5240.910137	0.082925	0.360657	1404.925537
5240.911048	0.082888	0.360657	1480.436646
5240.911945	0.082903	0.360657	1554.800537
5240.912837	0.082859	0.360657	1628.710693
5240.913784	0.082939	0.360657	1707.254395
5240.914686	0.082855	0.360657	1781.989746
5241.947101	1.026160	0.377959	464.850311
5241.948007	0.619720	0.377959	1026.317017
5241.948896	0.086931	0.377959	1103.598877
5241.949843	0.082928	0.377959	1182.132080
5241.950756	0.082939	0.377959	1257.855835
5241.951664	0.082906	0.377959	1333.134888
5241.952556	0.082885	0.377959	1407.067871
5241.953502	0.082939	0.377959	1485.528564
5241.954411	0.082874	0.377959	1560.860596
5241.955300	0.082892	0.377959	1634.551392
5241.956236	0.082954	0.377959	1712.196411
5241.957132	0.082976	0.377959	1786.542969
5243.016192	1.047242	0.358293	514.196045
5243.017115	0.541688	0.358293	1014.174255
5243.018005	0.085569	0.358293	1090.330566
5243.018892	0.082789	0.358293	1163.764648
5243.019830	0.082972	0.358293	1241.592773
5243.020727	0.082808	0.358293	1315.871216
5243.021630	0.082844	0.358293	1390.679565
5243.022535	0.082877	0.358293	1465.683472
5243.023476	0.082939	0.358293	1543.729492
5243.024386	0.082815	0.358293	1619.091064
5243.025283	0.082848	0.358293	1693.405640
5243.026203	0.082954	0.358293	1769.723389
5244.054982	1.002638	0.375123	435.144836
5244.055935	0.620369	0.375123	1026.356201
5244.056852	0.085433	0.375123	1104.698608
5244.057753	0.082837	0.375123	1179.334717
5244.058641	0.082925	0.375123	1252.971924
5244.059585	0.082954	0.375123	1331.280640
5244.060488	0.082903	0.375123	1406.141846
5244.061390	0.082833	0.375123	1480.857422
5244.062276	0.082965	0.375123	1554.364502
5244.063207	0.082947	0.375123	1631.587891
5244.064115	0.082866	0.375123	1706.830444
5244.065015	0.082921	0.375123	1781.459473
5245.126637	1.048143	0.363372	490.531097
5245.127568	0.560955	0.363372	1012.779785
5245.128467	0.085587	0.363372	1089.722656
5245.129356	0.082870	0.363372	1163.393921
5245.130292	0.082947	0.363372	1241.032104
5245.131195	0.082885	0.363372	1315.876831
5245.132085	0.082936	0.363372	1389.689697
5245.133032	0.082980	0.363372	1468.271484
5245.133928	0.082914	0.363372	1542.562256
5245.134825	0.082866	0.363372	1616.893311
5245.135718	0.082866	0.363372	1690.892822
5245.136666	0.082972	0.363372	1769.550659
5246.163922	1.015909	0.376082	454.111450
5246.164832	0.619003	0.376082	1017.403931
5246.165770	0.086796	0.376082	1098.818237
5246.166669	0.082837	0.376082	1173.288574
5246.167567	0.082841	0.376082	1247.679443
5246.168459	0.082892	0.376082	1321.619019
5246.169408	0.082896	0.376082	1400.286865
5246.170302	0.082837	0.376082	1474.343018
5246.171199	0.082881	0.376082	1548.687134
5246.172095	0.082950	0.376082	1623.010742
5246.173052	0.082998	0.376082	1702.439819
5246.173964	0.082961	0.376082	1778.100586
5247.236077	1.041570	0.363618	485.371552
5247.237016	0.563910	0.363618	1014.882935
5247.237904	0.085565	0.363618	1090.864868
5247.238817	0.082863	0.363618	1166.518311
5247.239744	0.082939	0.363618	1243.403198
5247.240651	0.082830	0.363618	1318.529663
5247.241550	0.082881	0.363618	1393.039551
5247.242476	0.082950	0.363618	1469.851685
5247.243378	0.082841	0.363618	1544.573853
5247.244273	0.082852	0.363618	1618.725952
5247.245163	0.082961	0.363618	1692.561646
5247.246108	0.082910	0.363618	1770.911743
5248.272863	1.026368	0.375030	460.839417
5248.273796	0.594426	0.375030	1015.439148
5248.274690	0.086323	0.375030	1092.612061
5248.275640	0.082870	0.375030	1171.338379
5248.276539	0.082936	0.375030	1245.897705
5248.277431	0.082874	0.375030	1319.820923
5248.278322	0.082947	0.375030	1393.726562
5248.279257	0.082936	0.375030	1471.271484
5248.280161	0.082936	0.375030	1546.245483
5248.281064	0.082888	0.375030	1621.093506
5248.281952	0.082932	0.375030	1694.737183
5248.282893	0.082958	0.375030	1772.800415
5249.346046	1.061803	0.365858	518.159851
5249.346983	0.524956	0.365858	1010.043701
5249.347887	0.085045	0.365858	1086.924561
5249.348775	0.082881	0.365858	1160.522705
5249.349735	0.082917	0.365858	1240.123535
5249.350644	0.082855	0.365858	1315.438965
5249.351534	0.082950	0.365858	1389.264893
5249.352454	0.082932	0.365858	1465.562500
5249.353369	0.082859	0.365858	1541.378418
5249.354264	0.082837	0.365858	1615.517456
5249.355152	0.082914	0.365858	1689.144897
5249.356087	0.082910	0.365858	1766.665894
5250.382317	1.041716	0.375002	481.272949
5250.383242	0.574135	0.375002	1012.347412
5250.384145	0.085770	0.375002	1089.797974
5250.385034	0.082870	0.375002	1163.469238
5250.385982	0.082980	0.375002	1242.134033
5250.386898	0.082848	0.375002	1318.022705
5250.387792	0.082855	0.375002	1392.095215
5250.388736	0.082914	0.375002	1470.365845
5250.389627	0.082954	0.375002	1544.277954
5250.390525	0.082965	0.375002	1618.780640
5250.391419	0.082863	0.375002	1692.859741
5250.392354	0.082980	0.375002	1770.445801
5251.454918	1.013075	0.362663	442.713715
5251.455909	0.516508	0.362663	954.572754
5251.456817	0.084910	0.362663	1031.670776
5251.457710	0.082822	0.362663	1105.631104
5251.458643	0.082804	0.362663	1182.887207
5251.459542	0.082815	0.362663	1257.337891
5251.460447	0.082917	0.362663	1332.378174
5251.461337	0.082896	0.362663	1406.155151
5251.462278	0.082855	0.362663	1484.121948
5251.463184	0.082852	0.362663	1559.185425
5251.464091	0.082859	0.362663	1634.338379
5251.464980	0.082892	0.362663	1708.029175
5252.492253	1.032455	0.375639	469.766968
5252.493185	0.576328	0.375639	1006.904785
5252.494088	0.085822	0.375639	1084.401611
5252.495012	0.082877	0.375639	1160.980103
5252.495926	0.082903	0.375639	1236.753296
5252.496841	0.082844	0.375639	1312.555786
5252.497732	0.082910	0.375639	1386.428711
5252.498653	0.082848	0.375639	1462.731689
5252.499557	0.082881	0.375639	1537.656006
5252.500460	0.082793	0.375639	1612.418091
5252.501352	0.082852	0.375639	1686.321655
5252.502290	0.082943	0.375639	1764.122314
5253.563863	1.017301	0.366523	452.698914
5253.564774	0.626576	0.366523	1023.509583
5253.565661	0.087056	0.366523	1100.727905
5253.566627	0.082800	0.366523	1180.713013
5253.567523	0.082925	0.366523	1255.013672
5253.568412	0.082925	0.366523	1328.733887
5253.569350	0.082917	0.366523	1406.510498
5253.570260	0.082899	0.366523	1481.948730
5253.571176	0.082939	0.366523	1557.921265
5253.572076	0.082936	0.366523	1632.563477
5253.573017	0.082925	0.366523	1710.595703
5253.573923	0.082881	0.366523	1785.685791
5254.602715	1.016287	0.374309	446.149811
5254.603625	0.628030	0.374309	1017.656860
5254.604515	0.087019	0.374309	1095.103760
5254.605450	0.082903	0.374309	1172.617920
5254.606363	0.082943	0.374309	1248.344971
5254.607262	0.082950	0.374309	1322.917358
5254.608149	0.082914	0.374309	1396.461914
5254.609093	0.082969	0.374309	1474.784424
5254.609999	0.082841	0.374309	1549.838013
5254.610900	0.082877	0.374309	1624.510376
5254.611792	0.082921	0.374309	1698.476074
5254.612727	0.082874	0.374309	1775.962769
5255.671824	1.087408	0.367026	546.966431
5255.672742	0.526172	0.367026	1029.992187
5255.673638	0.085305	0.367026	1106.425659
5255.674523	0.082866	0.367026	1179.762207
5255.675469	0.082943	0.367026	1258.226440
5255.676370	0.082877	0.367026	1332.898804
5255.677269	0.082896	0.367026	1407.421875
5255.678200	0.082906	0.367026	1484.607788
5255.679111	0.082928	0.367026	1560.155640
5255.680007	0.082866	0.367026	1634.403809
5255.680897	0.082888	0.367026	1708.174316
5255.681849	0.082910	0.367026	1787.104736
5256.712655	1.012119	0.376875	446.344543
5256.713567	0.629476	0.376875	1020.426941
5256.714451	0.087206	0.376875	1097.516846
5256.715413	0.082980	0.376875	1177.343384
5256.716324	0.082958	0.376875	1252.917969
5256.717220	0.082976	0.376875	1327.264526
5256.718163	0.082954	0.376875	1405.490234
5256.719068	0.083002	0.376875	1480.606812
5256.719959	0.082958	0.376875	1554.522217
5256.720847	0.082917	0.376875	1628.152954
5256.721790	0.082950	0.376875	1706.375244
5256.722692	0.082954	0.376875	1781.199829
5257.781188	0.998090	0.370631	431.174713
5257.782141	0.621237	0.370631	1023.213135
5257.783050	0.085917	0.370631	1101.311523
5257.783971	0.082855	0.370631	1177.621216
5257.784859	0.082991	0.370631	1251.317017
5257.785804	0.083002	0.370631	1329.753662
5257.786701	0.082903	0.370631	1404.117554
5257.787614	0.082954	0.370631	1479.854614
5257.788511	0.083024	0.370631	1554.326904
5257.789459	0.082976	0.370631	1632.988281
5257.790364	0.082928	0.370631	1708.038574
5257.791259	0.082998	0.370631	1782.321777
5258.822629	1.028888	0.376307	464.028442
5258.823529	0.622925	0.376307	1024.660767
5258.824416	0.087092	0.376307	1101.911621
5258.825374	0.082969	0.376307	1181.395630
5258.826269	0.082954	0.376307	1255.639526
5258.827154	0.082991	0.376307	1329.086304
5258.828089	0.082917	0.376307	1406.614136
5258.828997	0.082899	0.376307	1481.886597
5258.829906	0.082947	0.376307	1557.285156
5258.830798	0.082947	0.376307	1631.273682
5258.831745	0.082950	0.376307	1709.827759
5258.832653	0.082903	0.376307	1785.103516
5259.889612	1.005652	0.369600	441.481140
5259.890505	0.650944	0.369600	1022.773804
5259.891456	0.085862	0.369600	1104.428345
5259.892366	0.082896	0.369600	1179.863281
5259.893269	0.082954	0.369600	1254.770874
5259.894157	0.082954	0.369600	1328.434082
5259.895096	0.083002	0.369600	1406.372681
5259.896004	0.082917	0.369600	1481.661743
5259.896898	0.082888	0.369600	1555.763794
5259.897816	0.082917	0.369600	1631.882080
5259.898722	0.082910	0.369600	1706.998657
5259.899619	0.082947	0.369600	1781.401855
5260.932567	1.021238	0.377480	459.557037
5260.933463	0.639254	0.377480	1032.328735
5260.934416	0.086869	0.377480	1115.114746
5260.935312	0.082899	0.377480	1189.392456
5260.936215	0.082917	0.377480	1264.266968
5260.937107	0.082833	0.377480	1338.154175
5260.938041	0.082950	0.377480	1415.629883
5260.938948	0.082921	0.377480	1490.839355
5260.939852	0.082961	0.377480	1565.836426
5260.940748	0.082863	0.377480	1640.081299
5260.941691	0.083005	0.377480	1718.355347
5260.942605	0.082943	0.377480	1794.165405
5261.999075	1.028185	0.368911	468.852264
5261.999977	0.616564	0.368911	1024.992798
5262.000863	0.086902	0.368911	1101.987793
5262.001805	0.082830	0.368911	1180.013306
5262.002710	0.082859	0.368911	1255.000610
5262.003601	0.082994	0.368911	1328.948608
5262.004529	0.082950	0.368911	1405.926636
5262.005461	0.082939	0.368911	1483.226196
5262.006366	0.082822	0.368911	1558.180298
5262.007257	0.082885	0.368911	1632.030396
5262.008196	0.082950	0.368911	1709.920898
5262.009109	0.082954	0.368911	1785.657959
5263.042000	1.022047	0.377085	456.855072
5263.042919	0.610400	0.377085	1017.812988
5263.043808	0.086869	0.377085	1095.039429
5263.044767	0.082848	0.377085	1174.490601
5263.045674	0.082874	0.377085	1249.656860
5263.046567	0.082943	0.377085	1323.725098
5263.047504	0.082910	0.377085	1401.411865
5263.048399	0.082958	0.377085	1475.659058
5263.049301	0.082921	0.377085	1550.453979
5263.050191	0.082885	0.377085	1624.221191
5263.051123	0.083009	0.377085	1701.585571
5263.052028	0.082859	0.377085	1776.572876
5264.108030	1.075016	0.371143	521.382629
5264.108962	0.528311	0.371143	1013.768066
5264.109861	0.085159	0.371143	1090.325684
5264.110796	0.082983	0.371143	1167.915161
5264.111704	0.082932	0.371143	1243.217529
5264.112603	0.082928	0.371143	1317.770264
5264.113491	0.082928	0.371143	1391.410767
5264.114430	0.082932	0.371143	1469.284058
5264.115339	0.082932	0.371143	1544.669312
5264.116227	0.082917	0.371143	1618.300049
5264.117141	0.082939	0.371143	1694.106689
5264.118065	0.082991	0.371143	1770.790161
5265.150982	1.038175	0.376094	514.934875
5265.151905	0.537568	0.376094	1011.110474
5265.152798	0.085426	0.376094	1087.395874
5265.153685	0.082925	0.376094	1160.950195
5265.154637	0.083024	0.376094	1239.988770
5265.155536	0.082855	0.376094	1314.475586
5265.156436	0.082899	0.376094	1389.084839
5265.157327	0.082958	0.376094	1463.000244
5265.158280	0.082961	0.376094	1542.062500
5265.159193	0.082925	0.376094	1617.772827
5265.160085	0.082928	0.376094	1691.744995
5265.161030	0.082998	0.376094	1770.178101
5266.217942	1.022622	0.369584	458.134644
5266.218862	0.609880	0.369584	1019.224609
5266.219757	0.086492	0.369584	1096.634644
5266.220693	0.082921	0.369584	1174.248779
5266.221596	0.082998	0.369584	1249.196045
5266.222504	0.082939	0.369584	1324.505127
5266.223392	0.082914	0.369584	1398.132568
5266.224340	0.082947	0.369584	1476.766113
5266.225242	0.082910	0.369584	1551.551025
5266.226136	0.082892	0.369584	1625.656372
5266.227062	0.082961	0.369584	1702.478638
5266.227967	0.082998	0.369584	1777.591919
5267.259852	1.012679	0.379663	446.591644
5267.260837	0.534591	0.379663	973.163818
5267.261744	0.085276	0.379663	1050.509033
5267.262634	0.082877	0.379663	1124.269775
5267.263564	0.082932	0.379663	1201.396606
5267.264494	0.082994	0.379663	1278.581421
5267.265405	0.082969	0.379663	1354.166016
5267.266303	0.082914	0.379663	1428.622681
5267.267233	0.082954	0.379663	1505.770020
5267.268136	0.082899	0.379663	1580.627930
5267.269044	0.082888	0.379663	1655.890381
5267.269933	0.082892	0.379663	1729.581177
5268.328429	1.031228	0.370297	478.489777
5268.329342	0.594305	0.370297	1021.090576
5268.330231	0.086243	0.370297	1097.760254
5268.331169	0.082925	0.370297	1175.543701
5268.332077	0.082980	0.370297	1250.889282
5268.332995	0.082906	0.370297	1326.997437
5268.333889	0.082991	0.370297	1401.191162
5268.334840	0.082961	0.370297	1480.087524
5268.335745	0.082928	0.370297	1555.137817
5268.336669	0.082983	0.370297	1631.814453
5268.337566	0.083016	0.370297	1706.280151
5268.338495	0.082961	0.370297	1783.351318
5269.368778	1.010541	0.379470	446.658997
5269.369671	0.641594	0.379470	1019.602661
5269.370641	0.085433	0.379470	1102.473022
5269.371557	0.082782	0.379470	1178.301270
5269.372457	0.082914	0.379470	1252.923706
5269.373388	0.082939	0.379470	1330.140381
5269.374299	0.082976	0.379470	1405.731567
5269.375206	0.082947	0.379470	1480.964355
5269.376099	0.082917	0.379470	1555.009644
5269.377031	0.082932	0.379470	1632.302368
5269.377934	0.082936	0.379470	1707.193359
5269.378827	0.082896	0.379470	1781.218994
5270.438357	1.023523	0.369157	460.585327
5270.439258	0.628821	0.369157	1027.152832
5270.440186	0.086627	0.369157	1107.542847
5270.441099	0.082906	0.369157	1183.236450
5270.442001	0.082885	0.369157	1257.998291
5270.442890	0.082877	0.369157	1331.676147
5270.443842	0.082881	0.369157	1410.578735
5270.444746	0.082837	0.369157	1485.463257
5270.445639	0.082874	0.369157	1559.469360
5270.446570	0.082863	0.369157	1636.614380
5270.447476	0.082917	0.369157	1711.737549
5270.448386	0.082848	0.369157	1787.129150
5271.477708	1.012233	0.381391	446.394592
5271.478619	0.625247	0.381391	1015.994202
5271.479508	0.086990	0.381391	1093.328125
5271.480475	0.082983	0.381391	1173.573120
5271.481382	0.082939	0.381391	1248.799194
5271.482276	0.082983	0.381391	1322.986328
5271.483213	0.082939	0.381391	1400.700562
5271.484111	0.082972	0.381391	1475.209839
5271.484997	0.082943	0.381391	1548.697388
5271.485889	0.082885	0.381391	1622.630371
5271.486822	0.082936	0.381391	1700.009521
5271.487733	0.082958	0.381391	1775.583984
5272.548322	1.013712	0.368980	469.348724
5272.549236	0.592698	0.368980	1011.074463
5272.550125	0.086426	0.368980	1087.906982
5272.551092	0.082917	0.368980	1168.088135
5272.551999	0.082910	0.368980	1243.287598
5272.552917	0.082965	0.368980	1319.449585
5272.553809	0.082976	0.368980	1393.464233
5272.554756	0.082910	0.368980	1471.980103
5272.555648	0.082936	0.368980	1545.958862
5272.556539	0.082958	0.368980	1619.874268
5272.557471	0.083027	0.368980	1697.255737
5272.558372	0.082885	0.368980	1771.934692
5273.586689	1.063942	0.382084	507.500153
5273.587618	0.540015	0.382084	1009.173828
5273.588527	0.085276	0.382084	1086.689575
5273.589417	0.082917	0.382084	1160.486084
5273.590362	0.082991	0.382084	1238.912354
5273.591271	0.083031	0.382084	1314.387573
5273.592163	0.082954	0.382084	1388.382568
5273.593082	0.083009	0.382084	1464.667847
5273.593991	0.082972	0.382084	1540.089722
5273.594893	0.082939	0.382084	1614.901123
5273.595783	0.082965	0.382084	1688.739990
5273.596726	0.082983	0.382084	1766.993286
5274.657752	1.016605	0.369221	455.439148
5274.658649	0.636456	0.369221	1026.340454
5274.659588	0.087085	0.369221	1108.113281
5274.660499	0.083016	0.369221	1183.741211
5274.661395	0.082976	0.369221	1258.087769
5274.662286	0.083035	0.369221	1332.071655
5274.663240	0.083057	0.369221	1411.307739
5274.664142	0.083060	0.369221	1486.228149
5274.665043	0.082987	0.369221	1560.999512
5274.665928	0.082969	0.369221	1634.426880
5274.666875	0.083020	0.369221	1713.046875
5274.667775	0.082943	0.369221	1787.695679
5275.696601	1.018623	0.386753	453.287231
5275.697525	0.609181	0.386753	1016.170410
5275.698421	0.086532	0.386753	1093.703125
5275.699340	0.082870	0.386753	1169.860596
5275.700258	0.082983	0.386753	1246.039307
5275.701158	0.082896	0.386753	1320.645264
5275.702053	0.082910	0.386753	1394.849854
5275.702983	0.082928	0.386753	1471.973389
5275.703888	0.082917	0.386753	1547.013672
5275.704793	0.082980	0.386753	1622.110352
5275.705681	0.082877	0.386753	1695.705322
5275.706640	0.082965	0.386753	1775.268799
5276.767228	1.057057	0.370100	504.216095
5276.768154	0.555125	0.370100	1018.261353
5276.769046	0.085712	0.370100	1094.716187
5276.769991	0.082906	0.370100	1173.062866
5276.770903	0.082917	0.370100	1248.683594
5276.771796	0.082914	0.370100	1322.725586
5276.772684	0.082936	0.370100	1396.372559
5276.773624	0.082950	0.370100	1474.345947
5276.774528	0.082881	0.370100	1549.270264
5276.775418	0.082969	0.370100	1623.112427
5276.776339	0.082899	0.370100	1699.462524
5276.777256	0.082947	0.370100	1775.524658
5277.806092	1.065875	0.385234	537.201172
5277.807020	0.510315	0.385234	1010.773437
5277.807918	0.085060	0.385234	1087.157104
5277.808806	0.082921	0.385234	1160.791016
5277.809759	0.083031	0.385234	1239.919556
5277.810665	0.082994	0.385234	1315.112427
5277.811560	0.082950	0.385234	1389.353027
5277.812478	0.082943	0.385234	1465.494751
5277.813398	0.083027	0.385234	1541.879883
5277.814303	0.082921	0.385234	1616.923462
5277.815192	0.082903	0.385234	1690.624023
5277.816122	0.082980	0.385234	1767.795166
5278.876161	1.066040	0.369701	518.095459
5278.877084	0.547972	0.369701	1023.874023
5278.877983	0.085507	0.369701	1100.744385
5278.878868	0.082833	0.369701	1174.051758
5278.879800	0.082870	0.369701	1251.286499
5278.880713	0.082914	0.369701	1326.986816
5278.881609	0.082980	0.369701	1401.336670
5278.882528	0.082910	0.369701	1477.531128
5278.883433	0.082906	0.369701	1552.561523
5278.884335	0.082885	0.369701	1627.323364
5278.885219	0.082910	0.369701	1700.615967
5278.886164	0.082976	0.369701	1779.028320
5279.917007	1.015060	0.380646	449.671509
5279.917918	0.629722	0.380646	1023.347900
5279.918809	0.087074	0.380646	1100.930786
5279.919762	0.082877	0.380646	1179.912720
5279.920677	0.082888	0.380646	1255.755371
5279.921568	0.082892	0.380646	1329.612061
5279.922509	0.082921	0.380646	1407.640869
5279.923408	0.082958	0.380646	1482.219849
5279.924310	0.082906	0.380646	1557.001465
5279.925198	0.082954	0.380646	1630.664673
5279.926133	0.083005	0.380646	1708.274658
5279.927041	0.082797	0.380646	1783.453979
5280.984518	0.998467	0.373681	431.337646
5280.985429	0.645721	0.373681	1019.589844
5280.986368	0.086136	0.373681	1100.472046
5280.987276	0.082855	0.373681	1175.704590
5280.988165	0.082958	0.373681	1249.454102
5280.989117	0.082969	0.373681	1328.440308
5280.990015	0.082877	0.373681	1402.864014
5280.990923	0.082870	0.373681	1478.109863
5280.991816	0.082954	0.373681	1552.187866
5280.992762	0.082917	0.373681	1630.627808
5280.993670	0.082892	0.373681	1705.893555
5280.994568	0.082906	0.373681	1780.343628
5282.027467	1.008768	0.384283	444.866821
5282.028361	0.647267	0.384283	1023.523315
5282.029304	0.086140	0.384283	1104.753418
5282.030221	0.082888	0.384283	1180.761841
5282.031114	0.082965	0.384283	1254.849609
5282.032027	0.082899	0.384283	1330.536499
5282.032936	0.083020	0.384283	1406.001709
5282.033842	0.082917	0.384283	1481.125000
5282.034732	0.082958	0.384283	1554.957397
5282.035665	0.083053	0.384283	1632.445801
5282.036563	0.082925	0.384283	1706.912231
5282.037464	0.083002	0.384283	1781.696777
5283.092429	1.009512	0.371695	444.185150
5283.093415	0.527018	0.371695	963.824707
5283.094313	0.085247	0.371695	1040.376099
5283.095204	0.082896	0.371695	1114.235962
5283.096130	0.082958	0.371695	1191.054810
5283.097054	0.082972	0.371695	1267.721313
5283.097960	0.082844	0.371695	1342.778198
5283.098851	0.082903	0.371695	1416.644653
5283.099779	0.082947	0.371695	1493.619263
5283.100696	0.082921	0.371695	1569.657959
5283.101618	0.082928	0.371695	1646.118042
5283.102504	0.082859	0.371695	1719.531006
5284.138442	1.002184	0.382028	439.958679
5284.139410	0.552517	0.382028	974.795166
5284.140323	0.085320	0.382028	1052.692139
5284.141226	0.082811	0.382028	1127.470703
5284.142115	0.082925	0.382028	1201.190918
5284.143064	0.082954	0.382028	1279.914307
5284.143968	0.082892	0.382028	1354.848511
5284.144860	0.082903	0.382028	1428.797852
5284.145814	0.082991	0.382028	1507.970947
5284.146712	0.082958	0.382028	1582.467041
5284.147604	0.082928	0.382028	1656.439209
5284.148493	0.082950	0.382028	1730.182129
5285.200344	1.013665	0.374640	452.094421
5285.201237	0.643975	0.374640	1027.163818
5285.202181	0.086060	0.374640	1108.404053
5285.203091	0.082943	0.374640	1183.882324
5285.203999	0.082874	0.374640	1259.131470
5285.204889	0.082906	0.374640	1332.918213
5285.205851	0.082917	0.374640	1412.684814
5285.206757	0.082943	0.374640	1487.831299
5285.207656	0.082969	0.374640	1562.420166
5285.208583	0.082972	0.374640	1639.335571
5285.209484	0.083002	0.374640	1714.120117
5285.210387	0.083027	0.374640	1789.093750
5286.249961	1.041229	0.381427	481.047913
5286.250861	0.609998	0.381427	1030.045654
5286.251811	0.086572	0.381427	1112.289307
5286.252703	0.082896	0.381427	1186.232056
5286.253605	0.082939	0.381427	1261.043457
5286.254497	0.082863	0.381427	1334.956787
5286.255436	0.083020	0.381427	1412.912598
5286.256344	0.083005	0.381427	1488.281494
5286.257249	0.082950	0.381427	1563.351685
5286.258135	0.082969	0.381427	1636.862061
5286.259075	0.082976	0.381427	1714.859619
5286.259988	0.082928	0.381427	1790.573242
