time (s)	coil I (A)	last det (V)	int current (uC)
5534.531028	1.020238	0.244251	450.945221
5534.531948	0.613293	0.244251	1015.175171
5534.532846	0.086616	0.244251	1092.956543
5534.533783	0.082950	0.244251	1170.681152
5534.534693	0.082950	0.244251	1246.166016
5534.535598	0.082947	0.244251	1321.232910
5534.536484	0.082917	0.244251	1394.697754
5534.537429	0.082987	0.244251	1473.120483
5534.538340	0.082954	0.244251	1548.691650
5534.539232	0.082921	0.244251	1622.657349
5534.540168	0.082961	0.244251	1700.309204
5534.541079	0.082917	0.244251	1775.847046
5535.577080	1.064605	0.242893	516.333191
5535.578000	0.556611	0.242893	1028.415527
5535.578895	0.085774	0.242893	1105.183228
5535.579782	0.082906	0.242893	1178.721313
5535.580729	0.083013	0.242893	1257.334351
5535.581636	0.082917	0.242893	1332.540527
5535.582537	0.082921	0.242893	1407.252441
5535.583462	0.082899	0.242893	1483.934204
5535.584372	0.082921	0.242893	1559.392456
5535.585270	0.082903	0.242893	1633.839233
5535.586168	0.082881	0.242893	1708.266235
5535.587124	0.082939	0.242893	1787.556396
5536.644576	1.027456	0.238688	462.355225
5536.645483	0.618256	0.238688	1023.113037
5536.646370	0.087070	0.238688	1100.344360
5536.647325	0.082881	0.238688	1179.495605
5536.648226	0.082903	0.238688	1254.191040
5536.649128	0.082965	0.238688	1329.025513
5536.650018	0.082950	0.238688	1402.851440
5536.650964	0.082969	0.238688	1481.339844
5536.651869	0.082903	0.238688	1556.366943
5536.652761	0.082943	0.238688	1630.352173
5536.653671	0.082888	0.238688	1705.780396
5536.654587	0.082906	0.238688	1781.722778
5537.682883	1.006802	0.248412	437.958740
5537.683856	0.560687	0.248412	983.507446
5537.684766	0.085682	0.248412	1061.478394
5537.685653	0.082932	0.248412	1135.039185
5537.686588	0.082899	0.248412	1212.549927
5537.687494	0.082983	0.248412	1287.732910
5537.688396	0.082888	0.248412	1362.498047
5537.689286	0.082932	0.248412	1436.307617
5537.690281	0.082954	0.248412	1518.846924
5537.691179	0.082917	0.248412	1593.306763
5537.692083	0.082903	0.248412	1668.250977
5537.692968	0.082925	0.248412	1741.639404
5538.756042	1.012203	0.242684	444.357269
5538.757025	0.521638	0.242684	957.127563
5538.757933	0.085104	0.242684	1034.401733
5538.758835	0.082906	0.242684	1109.183350
5538.759759	0.082954	0.242684	1185.832886
5538.760660	0.082969	0.242684	1260.587769
5538.761564	0.082921	0.242684	1335.548462
5538.762453	0.082914	0.242684	1409.258789
5538.763379	0.083031	0.242684	1486.145508
5538.764280	0.082969	0.242684	1560.900391
5538.765182	0.082848	0.242684	1635.629150
5538.766070	0.082899	0.242684	1709.243652
5539.791343	1.044796	0.244400	484.785400
5539.792253	0.587985	0.244400	1019.851379
5539.793140	0.086444	0.244400	1096.527344
5539.794088	0.082874	0.244400	1175.091431
5539.794993	0.082914	0.244400	1250.128418
5539.795905	0.082947	0.244400	1325.775879
5539.796798	0.082863	0.244400	1399.772095
5539.797742	0.082910	0.244400	1478.039307
5539.798649	0.082866	0.244400	1553.198975
5539.799538	0.082943	0.244400	1626.935425
5539.800445	0.082925	0.244400	1702.148193
5539.801384	0.082903	0.244400	1779.993896
5540.864463	1.015481	0.250249	452.904510
5540.865364	0.635911	0.250249	1025.859985
5540.866305	0.087246	0.250249	1107.958618
5540.867223	0.082914	0.250249	1184.073486
5540.868126	0.082943	0.250249	1258.971069
5540.869015	0.082866	0.250249	1332.639160
5540.869962	0.082987	0.250249	1411.227905
5540.870866	0.082947	0.250249	1486.211792
5540.871767	0.082932	0.250249	1560.933594
5540.872651	0.082969	0.250249	1634.277954
5540.873590	0.082976	0.250249	1712.192505
5540.874503	0.082965	0.250249	1787.939575
5541.903325	1.024310	0.242374	455.818054
5541.904259	0.596364	0.242374	1012.821594
5541.905153	0.086265	0.242374	1089.942139
5541.906074	0.082881	0.242374	1166.275391
5541.906987	0.082972	0.242374	1242.029175
5541.907893	0.082958	0.242374	1317.188965
5541.908794	0.082958	0.242374	1391.933960
5541.909728	0.082939	0.242374	1469.399414
5541.910635	0.082994	0.242374	1544.675293
5541.911542	0.082888	0.242374	1619.854858
5541.912432	0.082928	0.242374	1693.661133
5541.913384	0.083071	0.242374	1772.744995
5542.969808	1.007732	0.248682	447.432983
5542.970790	0.539641	0.248682	977.360535
5542.971680	0.085261	0.248682	1053.243042
5542.972572	0.082786	0.248682	1127.087891
5542.973491	0.082859	0.248682	1203.235229
5542.974418	0.082896	0.248682	1280.079346
5542.975318	0.082844	0.248682	1354.639160
5542.976205	0.082906	0.248682	1428.177246
5542.977152	0.082896	0.248682	1506.679321
5542.978055	0.082815	0.248682	1581.461182
5542.978971	0.082870	0.248682	1657.369995
5542.979858	0.082899	0.248682	1730.901611
5544.016394	1.028837	0.237185	514.418274
5544.017325	0.534543	0.237185	1012.078247
5544.018216	0.085276	0.237185	1088.059082
5544.019107	0.082906	0.237185	1161.928711
5544.020043	0.082976	0.237185	1239.594360
5544.020953	0.082921	0.237185	1315.052612
5544.021850	0.082888	0.237185	1389.403320
5544.022777	0.083020	0.237185	1466.362915
5544.023679	0.082998	0.237185	1541.227173
5544.024575	0.082910	0.237185	1615.514648
5544.025464	0.082906	0.237185	1689.218506
5544.026409	0.082903	0.237185	1767.561646
5545.075660	1.025222	0.250596	450.072540
5545.076641	0.526494	0.250596	966.563232
5545.077554	0.085038	0.250596	1044.202759
5545.078452	0.082866	0.250596	1118.616577
5545.079393	0.082896	0.250596	1196.621216
5545.080304	0.082950	0.250596	1272.189087
5545.081210	0.082914	0.250596	1347.308960
5545.082101	0.082961	0.250596	1421.227539
5545.083042	0.082932	0.250596	1499.266724
5545.083949	0.082914	0.250596	1574.469604
5545.084840	0.082866	0.250596	1648.303345
5545.085764	0.082972	0.250596	1724.969849
5546.130425	1.028379	0.231876	497.735352
5546.131343	0.554220	0.231876	1006.509277
5546.132239	0.085613	0.231876	1083.218384
5546.133148	0.082819	0.231876	1158.500488
5546.134101	0.082833	0.231876	1237.440552
5546.135006	0.082888	0.231876	1312.454346
5546.135896	0.082874	0.231876	1386.211792
5546.136848	0.082892	0.231876	1465.124878
5546.137760	0.082899	0.231876	1540.728882
5546.138679	0.082910	0.231876	1616.923340
5546.139567	0.082870	0.231876	1690.511841
5546.140512	0.082848	0.231876	1768.803101
5547.180018	1.052534	0.261299	501.006226
5547.180924	0.585234	0.261299	1031.228516
5547.181813	0.086265	0.261299	1107.917725
5547.182763	0.082910	0.261299	1186.682373
5547.183675	0.082885	0.261299	1262.273071
5547.184569	0.082928	0.261299	1336.411133
5547.185474	0.082874	0.261299	1411.411621
5547.186401	0.082976	0.261299	1488.330444
5547.187311	0.082844	0.261299	1563.718750
5547.188201	0.082947	0.261299	1637.541382
5547.189136	0.082928	0.261299	1715.079468
5547.190040	0.082976	0.261299	1790.089844
5548.242428	1.061781	0.237572	518.149170
5548.243361	0.523879	0.237572	1006.928589
5548.244266	0.085118	0.237572	1083.960693
5548.245156	0.082833	0.237572	1157.682251
5548.246117	0.082958	0.237572	1237.404663
5548.247020	0.082972	0.237572	1312.328735
5548.247910	0.082958	0.237572	1386.161133
5548.248852	0.082906	0.237572	1464.259033
5548.249761	0.082991	0.237572	1539.697632
5548.250646	0.082896	0.237572	1613.060181
5548.251537	0.082991	0.237572	1687.004883
5548.252469	0.083031	0.237572	1764.389771
5549.287878	1.004374	0.249995	436.902588
5549.288842	0.597979	0.249995	1013.353882
5549.289754	0.085353	0.249995	1091.195557
5549.290658	0.082892	0.249995	1166.129761
5549.291550	0.082888	0.249995	1240.066040
5549.292493	0.082965	0.249995	1318.302124
5549.293398	0.082939	0.249995	1393.362305
5549.294295	0.082939	0.249995	1467.759033
5549.295206	0.082914	0.249995	1543.293579
5549.296109	0.082936	0.249995	1618.184570
5549.297062	0.082994	0.249995	1697.278198
5549.297963	0.082881	0.249995	1771.953857
5550.353367	1.017034	0.237926	456.648132
5550.354273	0.624408	0.237926	1022.361755
5550.355188	0.087129	0.237926	1102.084717
5550.356106	0.082892	0.237926	1178.179443
5550.357013	0.082888	0.237926	1253.359009
5550.357903	0.082859	0.237926	1327.103394
5550.358833	0.082950	0.237926	1404.247314
5550.359731	0.083009	0.237926	1478.789429
5550.360633	0.082928	0.237926	1553.590942
5550.361520	0.082969	0.237926	1627.184204
5550.362471	0.082965	0.237926	1706.083984
5550.363377	0.082800	0.237926	1781.101074
5551.396830	1.030001	0.257891	470.710541
5551.397734	0.616355	0.257891	1027.895508
5551.398671	0.086536	0.257891	1108.979370
5551.399574	0.082837	0.257891	1183.781128
5551.400472	0.082870	0.257891	1258.198242
5551.401362	0.082921	0.257891	1331.998047
5551.402296	0.082841	0.257891	1409.371094
5551.403203	0.082906	0.257891	1484.567261
5551.404109	0.082877	0.257891	1559.654053
5551.404999	0.082961	0.257891	1633.489746
5551.405937	0.083020	0.257891	1711.362549
5551.406848	0.082888	0.257891	1786.873657
5552.461263	1.004344	0.243812	439.902863
5552.462235	0.551748	0.243812	976.201904
5552.463151	0.085452	0.243812	1054.475586
5552.464045	0.082892	0.243812	1128.580933
5552.464951	0.082855	0.243812	1203.647705
5552.465880	0.082917	0.243812	1280.677979
5552.466795	0.082925	0.243812	1356.554199
5552.467689	0.082936	0.243812	1430.698853
5552.468618	0.082943	0.243812	1507.753052
5552.469521	0.082921	0.243812	1582.630859
5552.470434	0.082877	0.243812	1658.297729
5552.471324	0.082939	0.243812	1732.113892
5553.508348	1.026031	0.251313	497.625275
5553.509273	0.541168	0.251313	998.205872
5553.510177	0.085294	0.251313	1075.311768
5553.511066	0.082804	0.251313	1148.924438
5553.512018	0.083016	0.251313	1227.956055
5553.512913	0.082881	0.251313	1302.134399
5553.513816	0.082925	0.251313	1377.015503
5553.514706	0.082852	0.251313	1450.753418
5553.515657	0.082837	0.251313	1529.531372
5553.516570	0.082855	0.251313	1605.178223
5553.517462	0.082885	0.251313	1679.111206
5553.518391	0.082906	0.251313	1756.131348
5554.568709	1.036934	0.246640	514.319031
5554.569648	0.514208	0.246640	997.160156
5554.570548	0.084917	0.246640	1073.585449
5554.571437	0.082819	0.246640	1147.211182
5554.572394	0.082943	0.246640	1226.587769
5554.573301	0.082837	0.246640	1301.720825
5554.574201	0.082837	0.246640	1376.274048
5554.575090	0.082874	0.246640	1449.948608
5554.576031	0.082826	0.246640	1527.887817
5554.576933	0.082881	0.246640	1602.646362
5554.577825	0.082863	0.246640	1676.559814
5554.578758	0.082870	0.246640	1753.877441
5555.619803	1.028408	0.249693	464.840546
5555.620700	0.628553	0.249693	1028.652954
5555.621639	0.086653	0.249693	1110.020020
5555.622553	0.082936	0.249693	1185.823364
5555.623459	0.082892	0.249693	1260.923340
5555.624353	0.082885	0.249693	1335.022095
5555.625303	0.082998	0.249693	1413.870239
5555.626215	0.082859	0.249693	1489.437500
5555.627111	0.082928	0.249693	1563.741455
5555.628026	0.082932	0.249693	1639.624390
5555.628939	0.082925	0.249693	1715.334717
5555.629851	0.082844	0.249693	1790.888672
5556.675580	1.066875	0.247240	513.166870
5556.676488	0.574951	0.247240	1035.222534
5556.677373	0.086191	0.247240	1111.501953
5556.678331	0.082885	0.247240	1190.905273
5556.679224	0.082939	0.247240	1264.970215
5556.680122	0.082925	0.247240	1339.436646
5556.681013	0.082925	0.247240	1413.322632
5556.681962	0.082972	0.247240	1492.063477
5556.682867	0.082950	0.247240	1567.133667
5556.683766	0.082899	0.247240	1641.660034
5556.684687	0.082896	0.247240	1718.006836
5556.685591	0.083002	0.247240	1793.040405
5557.731268	0.999324	0.246684	432.707153
5557.732229	0.591515	0.246684	1001.152954
5557.733143	0.085675	0.246684	1079.459961
5557.734033	0.082866	0.246684	1153.210937
5557.734955	0.082954	0.246684	1229.694580
5557.735871	0.082881	0.246684	1305.613403
5557.736765	0.082950	0.246684	1379.771118
5557.737655	0.082917	0.246684	1453.567627
5557.738584	0.083064	0.246684	1530.734009
5557.739500	0.082947	0.246684	1606.713257
5557.740398	0.082921	0.246684	1681.176392
5557.741290	0.082885	0.246684	1755.109375
5558.784516	1.034674	0.249169	513.198303
5558.785439	0.542472	0.249169	1013.899841
5558.786333	0.085518	0.249169	1090.352539
5558.787219	0.082881	0.249169	1163.785034
5558.788153	0.083101	0.249169	1241.401001
5558.789059	0.083009	0.249169	1316.607178
5558.789964	0.082950	0.249169	1391.677368
5558.790854	0.082954	0.249169	1465.506470
5558.791796	0.083024	0.249169	1543.714722
5558.792701	0.082958	0.249169	1618.791504
5558.793598	0.082932	0.249169	1693.181641
5558.794540	0.082972	0.249169	1771.341675
5559.840200	1.007618	0.250483	439.321594
5559.841163	0.594576	0.250483	1011.898682
5559.842073	0.085668	0.250483	1089.856323
5559.842970	0.082800	0.250483	1164.128174
5559.843856	0.082896	0.250483	1237.573608
5559.844798	0.083075	0.250483	1315.830200
5559.845699	0.082954	0.250483	1390.571899
5559.846602	0.083009	0.250483	1465.529053
5559.847491	0.082936	0.250483	1539.259033
5559.848437	0.082976	0.250483	1617.754395
5559.849347	0.082961	0.250483	1693.249268
5559.850243	0.082932	0.250483	1767.556396
5560.892384	1.025079	0.253041	461.285706
5560.893299	0.609075	0.253041	1018.589050
5560.894193	0.086532	0.253041	1095.948608
5560.895125	0.082917	0.253041	1173.227661
5560.896044	0.082928	0.253041	1249.438965
5560.896948	0.082852	0.253041	1324.336792
5560.897834	0.082943	0.253041	1397.824341
5560.898785	0.082914	0.253041	1476.675415
5560.899694	0.082943	0.253041	1552.070679
5560.900616	0.082910	0.253041	1628.513794
5560.901501	0.083002	0.253041	1701.970337
5560.902442	0.082874	0.253041	1779.954346
5561.951231	1.064538	0.250217	516.301147
5561.952150	0.551697	0.250217	1023.310486
5561.953052	0.085518	0.250217	1100.447388
5561.953939	0.082888	0.250217	1173.969238
5561.954870	0.082976	0.250217	1251.219971
5561.955782	0.082855	0.250217	1326.783936
5561.956676	0.082859	0.250217	1400.859741
5561.957607	0.082917	0.250217	1478.055908
5561.958511	0.082976	0.250217	1553.066284
5561.959417	0.082987	0.250217	1628.252563
5561.960306	0.082932	0.250217	1701.979248
5561.961248	0.082950	0.250217	1780.118530
5563.002327	1.019293	0.251365	457.662628
5563.003227	0.630432	0.251365	1025.051514
5563.004169	0.086843	0.251365	1106.857910
5563.005077	0.082936	0.251365	1182.163574
5563.005982	0.082983	0.251365	1257.263550
5563.006870	0.082914	0.251365	1330.890991
5563.007825	0.082991	0.251365	1410.147095
5563.008729	0.082910	0.251365	1485.097900
5563.009627	0.083060	0.251365	1559.686035
5563.010526	0.082914	0.251365	1634.225586
5563.011450	0.082972	0.251365	1710.892090
5563.012358	0.082917	0.251365	1786.181152
5564.059116	1.032224	0.252469	477.919800
5564.060017	0.613290	0.252469	1030.493896
5564.060905	0.086818	0.252469	1107.587891
5564.061854	0.082899	0.252469	1186.259155
5564.062765	0.082811	0.252469	1261.700195
5564.063688	0.082961	0.252469	1338.273560
5564.064576	0.082939	0.252469	1411.923828
5564.065544	0.082939	0.252469	1492.209229
5564.066451	0.082906	0.252469	1567.405396
5564.067340	0.082961	0.252469	1641.158081
5564.068285	0.082928	0.252469	1719.525513
5564.069193	0.082866	0.252469	1794.768066
5565.112280	1.026233	0.249782	460.778534
5565.113184	0.621940	0.249782	1023.011963
5565.114129	0.085873	0.249782	1104.161743
5565.115037	0.082892	0.249782	1179.427490
5565.115948	0.082961	0.249782	1255.005371
5565.116832	0.082958	0.249782	1328.340088
5565.117766	0.082943	0.249782	1405.808960
5565.118678	0.082917	0.249782	1481.429687
5565.119566	0.082983	0.249782	1555.118896
5565.120495	0.082998	0.249782	1632.224121
5565.121404	0.082972	0.249782	1707.645996
5565.122302	0.082917	0.249782	1782.105835
5566.167043	1.029294	0.252469	510.529999
5566.167975	0.514318	0.252469	989.874023
5566.168879	0.085100	0.252469	1066.804565
5566.169771	0.082925	0.252469	1140.773437
5566.170730	0.082965	0.252469	1220.336914
5566.171627	0.082939	0.252469	1294.733643
5566.172533	0.082910	0.252469	1369.850220
5566.173420	0.082903	0.252469	1443.385010
5566.174371	0.082950	0.252469	1522.270874
5566.175281	0.082906	0.252469	1597.715820
5566.176171	0.082958	0.252469	1671.548218
5566.177096	0.083046	0.252469	1748.365479
5567.223819	1.058053	0.250434	534.316772
5567.224733	0.533958	0.250434	1022.354004
5567.225626	0.085397	0.250434	1098.613281
5567.226522	0.082841	0.250434	1172.838379
5567.227450	0.082969	0.250434	1249.833374
5567.228350	0.082877	0.250434	1324.422852
5567.229245	0.082866	0.250434	1398.588135
5567.230152	0.082914	0.250434	1473.791016
5567.231077	0.082943	0.250434	1550.513428
5567.231986	0.082808	0.250434	1625.785522
5567.232889	0.082906	0.250434	1700.650146
5567.233806	0.082859	0.250434	1776.631714
5568.273922	1.028610	0.258886	510.190369
5568.274844	0.526710	0.258886	995.817139
5568.275748	0.085166	0.258886	1072.807251
5568.276638	0.082925	0.258886	1146.610352
5568.277584	0.082950	0.258886	1225.081421
5568.278497	0.082980	0.258886	1300.841919
5568.279399	0.082910	0.258886	1375.626831
5568.280286	0.082910	0.258886	1449.168091
5568.281225	0.082972	0.258886	1527.079224
5568.282134	0.082947	0.258886	1602.477783
5568.283025	0.082980	0.258886	1676.412720
5568.283960	0.082877	0.258886	1753.902954
5569.335256	1.018630	0.250579	453.290527
5569.336146	0.640792	0.250579	1023.595642
5569.337101	0.086261	0.250579	1105.974854
5569.338003	0.082954	0.250579	1180.799438
5569.338902	0.082958	0.250579	1255.378418
5569.339788	0.082972	0.250579	1328.891968
5569.340712	0.083060	0.250579	1405.639648
5569.341621	0.082972	0.250579	1481.061523
5569.342516	0.082991	0.250579	1555.338257
5569.343455	0.082987	0.250579	1633.263062
5569.344363	0.083046	0.250579	1708.668457
5569.345269	0.082961	0.250579	1783.831543
5570.381788	1.031642	0.257746	472.491974
5570.382687	0.619779	0.257746	1029.673340
5570.383639	0.085734	0.257746	1111.291748
5570.384546	0.082892	0.257746	1186.474609
5570.385441	0.082892	0.257746	1260.662842
5570.386327	0.082899	0.257746	1334.111450
5570.387258	0.082969	0.257746	1411.355347
5570.388163	0.082936	0.257746	1486.412231
5570.389060	0.083020	0.257746	1560.881226
5570.389989	0.082969	0.257746	1637.959229
5570.390896	0.082939	0.257746	1713.185303
5570.391796	0.082921	0.257746	1787.814331
5571.446227	1.012870	0.243981	449.714203
5571.447124	0.626298	0.243981	1011.503174
5571.448090	0.085631	0.243981	1094.222778
5571.448984	0.082833	0.243981	1168.275757
5571.449876	0.082917	0.243981	1242.238159
5571.450806	0.083027	0.243981	1319.453613
5571.451716	0.082939	0.243981	1394.928467
5571.452640	0.082866	0.243981	1471.496826
5571.453533	0.082888	0.243981	1545.515991
5571.454489	0.082917	0.243981	1624.785156
5571.455391	0.082917	0.243981	1699.576660
5571.456312	0.082983	0.243981	1776.004395
5572.490248	1.046089	0.258600	521.998291
5572.491180	0.511256	0.258600	998.489014
5572.492086	0.084862	0.258600	1075.374023
5572.492976	0.082855	0.258600	1149.115234
5572.493915	0.082980	0.258600	1227.033203
5572.494831	0.082885	0.258600	1302.955444
5572.495724	0.082925	0.258600	1377.007324
5572.496659	0.082961	0.258600	1454.576294
5572.497556	0.082928	0.258600	1528.963135
5572.498457	0.082954	0.258600	1603.704834
5572.499344	0.082950	0.258600	1677.281860
5572.500296	0.082983	0.258600	1756.282104
5573.555147	1.010779	0.249041	444.742676
5573.556041	0.633322	0.249041	1010.932129
5573.557027	0.085162	0.249041	1094.902222
5573.557940	0.082914	0.249041	1170.602539
5573.558839	0.082917	0.249041	1245.145386
5573.559775	0.083049	0.249041	1322.879517
5573.560688	0.082961	0.249041	1398.623291
5573.561592	0.082939	0.249041	1473.600586
5573.562484	0.082906	0.249041	1547.553223
5573.563437	0.083024	0.249041	1626.674805
5573.564342	0.082998	0.249041	1701.788086
5573.565235	0.082925	0.249041	1775.839966
5574.600158	1.024589	0.261915	459.015747
5574.601084	0.596916	0.261915	1011.760437
5574.601975	0.086462	0.261915	1088.798462
5574.602918	0.082833	0.261915	1166.910156
5574.603831	0.082914	0.261915	1242.610474
5574.604727	0.082914	0.261915	1316.901245
5574.605618	0.082906	0.261915	1390.770874
5574.606549	0.082969	0.261915	1468.014771
5574.607450	0.082928	0.261915	1542.733276
5574.608353	0.082863	0.261915	1617.558105
5574.609242	0.082939	0.261915	1691.291260
5574.610191	0.082914	0.261915	1769.976440
5575.662556	1.020905	0.243526	456.344330
5575.663447	0.621929	0.243526	1010.482788
5575.664410	0.085887	0.243526	1093.192383
5575.665300	0.082932	0.243526	1167.001953
5575.666189	0.082976	0.243526	1240.767700
5575.667119	0.082987	0.243526	1317.945679
5575.668021	0.082906	0.243526	1392.727295
5575.668936	0.082965	0.243526	1468.640381
5575.669833	0.082943	0.243526	1543.040405
5575.670780	0.082932	0.243526	1621.577148
5575.671691	0.082910	0.243526	1697.108276
5575.672575	0.082917	0.243526	1770.407349
5576.712709	1.035601	0.261001	514.693481
5576.713642	0.508784	0.261001	989.389160
5576.714544	0.085137	0.261001	1066.182495
5576.715435	0.082936	0.261001	1140.078247
5576.716388	0.082991	0.261001	1219.168457
5576.717290	0.082943	0.261001	1293.983154
5576.718191	0.082896	0.261001	1368.671997
5576.719081	0.082928	0.261001	1442.478271
5576.720021	0.082961	0.261001	1520.462036
5576.720929	0.083009	0.261001	1595.834229
5576.721817	0.082910	0.261001	1669.458496
5576.722756	0.082943	0.261001	1747.342041
5577.767886	1.003140	0.248944	439.375153
5577.768780	0.649200	0.248944	1019.760376
5577.769749	0.085693	0.248944	1102.797241
5577.770652	0.082896	0.248944	1177.651855
5577.771550	0.082954	0.248944	1252.144653
5577.772478	0.082961	0.248944	1329.132812
5577.773386	0.082987	0.248944	1404.485107
5577.774292	0.082980	0.248944	1479.664795
5577.775187	0.082958	0.248944	1553.911987
5577.776111	0.082961	0.248944	1630.568359
5577.777023	0.082961	0.248944	1706.229126
5577.777925	0.082914	0.248944	1781.017334
5578.825173	1.009398	0.265162	449.182159
5578.826163	0.517599	0.265162	961.604980
5578.827074	0.084976	0.265162	1039.017700
5578.827977	0.082980	0.265162	1113.948364
5578.828863	0.082896	0.265162	1187.393799
5578.829807	0.082987	0.265162	1265.733643
5578.830719	0.082870	0.265162	1341.310913
5578.831613	0.082932	0.265162	1415.452271
5578.832541	0.082939	0.265162	1492.420044
5578.833440	0.082958	0.265162	1566.999023
5578.834340	0.082947	0.265162	1641.651123
5578.835228	0.082976	0.265162	1715.333862
5579.873762	1.028390	0.251163	466.889038
5579.874668	0.620413	0.251163	1028.982910
5579.875558	0.086916	0.251163	1106.338623
5579.876524	0.082896	0.251163	1186.415649
5579.877422	0.082877	0.251163	1260.839355
5579.878325	0.082866	0.251163	1335.667603
5579.879218	0.082830	0.251163	1409.634399
5579.880167	0.082972	0.251163	1488.375244
5579.881067	0.082888	0.251163	1562.974609
5579.881957	0.082958	0.251163	1636.807007
5579.882890	0.082954	0.251163	1714.203125
5579.883801	0.082877	0.251163	1789.704224
5580.938699	1.019755	0.260090	448.692047
5580.939682	0.524491	0.260090	964.266602
5580.940585	0.085217	0.260090	1041.217773
5580.941482	0.082910	0.260090	1115.588135
5580.942416	0.082965	0.260090	1193.077515
5580.943319	0.082936	0.260090	1267.968506
5580.944217	0.082972	0.260090	1342.477783
5580.945099	0.082910	0.260090	1415.604492
5580.946038	0.082939	0.260090	1493.484619
5580.946941	0.082965	0.260090	1568.402100
5580.947844	0.082936	0.260090	1643.293091
5580.948742	0.082939	0.260090	1717.772705
5581.979611	1.019421	0.254084	454.661926
5581.980538	0.597653	0.254084	1008.685852
5581.981437	0.086393	0.254084	1086.353027
5581.982376	0.082954	0.254084	1164.246948
5581.983278	0.083002	0.254084	1239.114502
5581.984179	0.082961	0.254084	1313.862793
5581.985065	0.082987	0.254084	1387.389282
5581.986001	0.083035	0.254084	1465.109741
5581.986906	0.082943	0.254084	1540.173218
5581.987801	0.082928	0.254084	1614.394165
5581.988721	0.082954	0.254084	1690.711914
5581.989634	0.083038	0.254084	1766.525879
5583.051208	1.004282	0.258451	436.862762
5583.052160	0.596777	0.258451	1004.994873
5583.053078	0.085474	0.258451	1083.459717
5583.053986	0.082819	0.258451	1158.659058
5583.054911	0.082874	0.258451	1235.317017
5583.055802	0.082928	0.258451	1309.206299
5583.056745	0.082896	0.258451	1387.376709
5583.057662	0.082866	0.258451	1463.364990
5583.058552	0.082899	0.258451	1537.145264
5583.059457	0.082932	0.258451	1612.198853
5583.060390	0.082914	0.258451	1689.557495
5583.061292	0.082903	0.258451	1764.335815
5584.088013	1.004853	0.255796	439.120972
5584.088958	0.621097	0.255796	1026.057983
5584.089869	0.085953	0.255796	1104.361450
5584.090763	0.082885	0.255796	1178.460205
5584.091654	0.082965	0.255796	1252.382080
5584.092591	0.082976	0.255796	1330.130615
5584.093513	0.082830	0.255796	1406.499512
5584.094413	0.082903	0.255796	1481.112061
5584.095299	0.082965	0.255796	1554.619141
5584.096247	0.083016	0.255796	1633.318604
5584.097147	0.082932	0.255796	1707.957520
5584.098039	0.082947	0.255796	1781.946045
5585.160663	1.014258	0.252449	452.358978
5585.161557	0.627726	0.252449	1013.545898
5585.162494	0.086144	0.252449	1094.262695
5585.163407	0.082906	0.252449	1169.956299
5585.164308	0.082994	0.252449	1244.734253
5585.165233	0.083020	0.252449	1321.527832
5585.166142	0.083020	0.252449	1396.993042
5585.167053	0.082914	0.252449	1472.527588
5585.167943	0.082936	0.252449	1546.340454
5585.168885	0.082954	0.252449	1624.483154
5585.169791	0.082969	0.252449	1699.652832
5585.170687	0.083009	0.252449	1774.028931
5586.196954	1.010724	0.256332	445.729218
5586.197850	0.645685	0.256332	1024.262817
5586.198793	0.086100	0.256332	1105.454956
5586.199701	0.082936	0.256332	1180.760620
5586.200605	0.082954	0.256332	1255.751099
5586.201497	0.082925	0.256332	1329.719971
5586.202453	0.082969	0.256332	1409.038086
5586.203357	0.082958	0.256332	1484.031860
5586.204251	0.082972	0.256332	1558.209229
5586.205190	0.082969	0.256332	1636.116943
5586.206098	0.083009	0.256332	1711.489136
5586.206991	0.082885	0.256332	1785.505005
5587.268598	1.066278	0.256654	513.946045
5587.269527	0.541359	0.256654	1016.868225
5587.270430	0.085367	0.256654	1093.955078
5587.271317	0.082855	0.256654	1167.447632
5587.272267	0.083005	0.256654	1246.302734
5587.273175	0.082943	0.256654	1321.615112
5587.274076	0.082965	0.256654	1396.366699
5587.275004	0.082928	0.256654	1473.324341
5587.275908	0.082958	0.256654	1548.318115
5587.276804	0.082844	0.256654	1622.546509
5587.277691	0.082877	0.256654	1696.058594
5587.278621	0.082954	0.256654	1773.205933
5588.309466	1.022849	0.261299	461.304932
5588.310372	0.621628	0.261299	1024.500244
5588.311258	0.087041	0.261299	1101.618530
5588.312196	0.082888	0.261299	1179.367676
5588.313114	0.082863	0.261299	1255.435547
5588.314008	0.082910	0.261299	1329.557251
5588.314943	0.082936	0.261299	1407.102173
5588.315847	0.082980	0.261299	1482.115845
5588.316749	0.082932	0.261299	1556.920654
5588.317638	0.082899	0.261299	1630.618042
5588.318584	0.083009	0.261299	1709.144531
5588.319483	0.082939	0.261299	1783.707153
5589.375959	1.019641	0.255019	452.720673
5589.376859	0.635090	0.255019	1024.301880
5589.377753	0.087257	0.255019	1102.309692
5589.378701	0.082906	0.255019	1180.905029
5589.379615	0.082874	0.255019	1256.651489
5589.380514	0.082917	0.255019	1331.194336
5589.381443	0.082866	0.255019	1408.177002
5589.382351	0.083005	0.255019	1483.545898
5589.383252	0.082892	0.255019	1558.231445
5589.384139	0.082991	0.255019	1631.844238
5589.385083	0.082976	0.255019	1710.173706
5589.385985	0.082917	0.255019	1784.965332
5590.420428	1.000397	0.258797	436.172974
5590.421371	0.613433	0.258797	1014.639954
5590.422286	0.085734	0.258797	1093.086182
5590.423181	0.082848	0.258797	1167.235107
5590.424070	0.082954	0.258797	1240.981323
5590.425009	0.082954	0.258797	1318.875244
5590.425915	0.082965	0.258797	1394.041626
5590.426828	0.082943	0.258797	1469.768677
5590.427715	0.082961	0.258797	1543.355469
5590.428660	0.082983	0.258797	1621.774780
5590.429566	0.082877	0.258797	1696.861572
5590.430455	0.082921	0.258797	1770.578491
5591.482328	1.022197	0.257226	453.855591
5591.483239	0.623617	0.257226	1021.970642
5591.484130	0.087037	0.257226	1099.520874
5591.485092	0.083053	0.257226	1179.417847
5591.485992	0.083002	0.257226	1254.119385
5591.486893	0.082972	0.257226	1328.877563
5591.487784	0.082969	0.257226	1402.802734
5591.488720	0.083016	0.257226	1480.506104
5591.489633	0.082958	0.257226	1556.246582
5591.490529	0.082939	0.257226	1630.560303
5591.491456	0.082899	0.257226	1707.407837
5591.492359	0.083005	0.257226	1782.361694
5592.533449	1.005421	0.258253	437.358215
5592.534393	0.622577	0.258253	1025.070801
5592.535305	0.085807	0.258253	1103.326660
5592.536216	0.082943	0.258253	1178.887817
5592.537111	0.082965	0.258253	1253.141602
5592.538040	0.083009	0.258253	1330.256958
5592.538937	0.082991	0.258253	1404.699585
5592.539832	0.082939	0.258253	1478.930420
5592.540719	0.083049	0.258253	1552.595215
5592.541662	0.082994	0.258253	1630.858887
5592.542560	0.082943	0.258253	1705.341797
5592.543456	0.082925	0.258253	1779.642456
5593.589715	1.011314	0.261855	450.034546
5593.590609	0.642422	0.261855	1024.359741
5593.591560	0.085964	0.261855	1106.111816
5593.592465	0.082859	0.261855	1181.099121
5593.593356	0.082928	0.261855	1254.988403
5593.594291	0.082994	0.261855	1332.588135
5593.595198	0.083020	0.261855	1407.887329
5593.596100	0.082855	0.261855	1482.622803
5593.596999	0.082954	0.261855	1557.198486
5593.597933	0.083035	0.261855	1634.752930
5593.598841	0.082958	0.261855	1710.078613
5593.599745	0.082969	0.261855	1785.082397
5594.644468	1.059635	0.257863	506.505554
5594.645395	0.552330	0.257863	1018.515747
5594.646299	0.085598	0.257863	1095.896484
5594.647186	0.082833	0.257863	1169.369629
5594.648138	0.083038	0.257863	1248.422119
5594.649042	0.082925	0.257863	1323.386108
5594.649933	0.082983	0.257863	1397.324341
5594.650855	0.082921	0.257863	1473.777588
5594.651763	0.082899	0.257863	1549.050049
5594.652667	0.082859	0.257863	1623.954468
5594.653563	0.082903	0.257863	1698.235352
5594.654498	0.082954	0.257863	1775.797485
5595.697100	1.008984	0.258560	441.935181
5595.698053	0.577328	0.258560	992.128662
5595.698984	0.085232	0.258560	1071.479614
5595.699887	0.082950	0.258560	1146.383911
5595.700777	0.082906	0.258560	1220.170654
5595.701725	0.082958	0.258560	1298.814575
5595.702639	0.082947	0.258560	1374.627930
5595.703530	0.082965	0.258560	1448.549805
5595.704449	0.082939	0.258560	1524.771118
5595.705374	0.082991	0.258560	1601.537598
5595.706273	0.082892	0.258560	1676.057373
5595.707161	0.082925	0.258560	1749.694580
5596.755409	1.010764	0.255760	449.790100
5596.756306	0.642858	0.255760	1026.433350
5596.757229	0.087488	0.255760	1107.184570
5596.758154	0.082954	0.255760	1183.917114
5596.759064	0.082899	0.255760	1259.355347
5596.759955	0.083024	0.255760	1333.329468
5596.760900	0.082969	0.255760	1411.734985
5596.761802	0.082950	0.255760	1486.556274
5596.762705	0.082939	0.255760	1561.450562
5596.763595	0.082976	0.255760	1635.299316
5596.764527	0.083005	0.255760	1712.660278
5596.765435	0.083027	0.255760	1788.049072
5597.805536	1.026438	0.264413	469.082123
5597.806435	0.620980	0.264413	1027.343384
5597.807383	0.086653	0.264413	1109.490234
5597.808283	0.082998	0.264413	1184.188477
5597.809181	0.082917	0.264413	1258.648315
5597.810070	0.082998	0.264413	1332.433594
5597.811015	0.083079	0.264413	1410.942871
5597.811919	0.082983	0.264413	1485.959839
5597.812824	0.082969	0.264413	1561.046509
5597.813729	0.082954	0.264413	1636.119995
5597.814644	0.082994	0.264413	1712.059814
5597.815561	0.082965	0.264413	1788.138794
5598.864847	1.014514	0.257138	449.429779
5598.865755	0.631348	0.257138	1022.693481
5598.866667	0.086506	0.257138	1101.587280
5598.867566	0.082870	0.257138	1176.087280
5598.868500	0.082866	0.257138	1253.484375
5598.869413	0.082892	0.257138	1329.164673
5598.870308	0.082928	0.257138	1403.385620
5598.871229	0.082972	0.257138	1479.803223
5598.872163	0.082885	0.257138	1557.217407
5598.873062	0.082917	0.257138	1631.760254
5598.873950	0.082947	0.257138	1705.416992
5598.874870	0.082921	0.257138	1781.704468
5599.914962	1.017316	0.261911	452.705505
5599.915877	0.619237	0.261911	1019.307434
5599.916767	0.086986	0.261911	1096.725098
5599.917719	0.082928	0.261911	1175.672974
5599.918622	0.082892	0.261911	1250.524292
5599.919519	0.083016	0.261911	1324.989990
5599.920409	0.082958	0.261911	1398.822388
5599.921342	0.082899	0.261911	1476.167358
5599.922246	0.082921	0.261911	1551.128052
5599.923137	0.082983	0.261911	1625.066284
5599.924061	0.082991	0.261911	1701.749756
5599.924975	0.082917	0.261911	1777.536377
5600.973828	1.071713	0.258278	533.712891
5600.974758	0.513307	0.258278	1011.088257
5600.975662	0.085027	0.258278	1087.952515
5600.976552	0.082844	0.258278	1161.683838
5600.977506	0.083027	0.258278	1240.891968
5600.978411	0.082892	0.258278	1315.909058
5600.979305	0.082961	0.258278	1390.076538
5600.980236	0.083002	0.258278	1467.351074
5600.981139	0.082961	0.258278	1542.265259
5600.982051	0.082925	0.258278	1617.892700
5600.982947	0.082881	0.258278	1692.153931
5600.983878	0.082936	0.258278	1769.367187
5602.024917	1.014866	0.266403	454.659851
5602.025815	0.639042	0.266403	1028.519287
5602.026748	0.087367	0.266403	1110.032593
5602.027666	0.082947	0.266403	1186.177734
5602.028565	0.082987	0.266403	1260.783081
5602.029460	0.082965	0.266403	1335.036865
5602.030395	0.082936	0.266403	1412.581787
5602.031298	0.082972	0.266403	1487.505859
5602.032202	0.082936	0.266403	1562.479858
5602.033091	0.082899	0.266403	1636.177246
5602.034041	0.082983	0.266403	1715.011475
5602.034948	0.082958	0.266403	1790.254150
5603.082186	1.007750	0.259865	444.417877
5603.083080	0.630414	0.259865	1008.007812
5603.084047	0.085529	0.259865	1090.713867
5603.084964	0.082815	0.259865	1166.655151
5603.085863	0.082972	0.259865	1241.247314
5603.086805	0.082947	0.259865	1319.383179
5603.087709	0.082958	0.259865	1394.376953
5603.088615	0.082921	0.259865	1469.503540
5603.089503	0.082885	0.259865	1543.104980
5603.090440	0.082976	0.259865	1620.853516
5603.091341	0.082928	0.259865	1695.572021
5603.092237	0.082892	0.259865	1769.843140
5604.134885	1.035516	0.260219	474.266510
5604.135787	0.613630	0.260219	1027.761108
5604.136675	0.086781	0.260219	1104.822632
5604.137620	0.082852	0.260219	1183.117310
5604.138529	0.082859	0.260219	1258.436035
5604.139443	0.082921	0.260219	1334.225952
5604.140337	0.082841	0.260219	1408.285400
5604.141276	0.082921	0.260219	1486.148315
5604.142195	0.082822	0.260219	1562.261963
5604.143090	0.082917	0.260219	1636.473145
5604.143998	0.082936	0.260219	1711.778809
5604.144914	0.082859	0.260219	1787.677490
5605.190613	1.015924	0.259643	448.022522
5605.191543	0.601501	0.259643	1007.418884
5605.192437	0.086583	0.259643	1084.824341
5605.193380	0.082947	0.259643	1163.043213
5605.194281	0.082958	0.259643	1237.788208
5605.195177	0.082954	0.259643	1312.115112
5605.196073	0.082903	0.259643	1386.395996
5605.197000	0.082917	0.259643	1463.260498
5605.197910	0.082910	0.259643	1538.708740
5605.198808	0.082870	0.259643	1613.125854
5605.199724	0.082965	0.259643	1689.121826
5605.200643	0.083027	0.259643	1765.423950
5606.246397	1.026526	0.263680	501.971130
5606.247325	0.532573	0.263680	996.199097
5606.248223	0.085313	0.263680	1072.809692
5606.249108	0.082844	0.263680	1146.126831
5606.250039	0.082906	0.263680	1223.312744
5606.250944	0.082874	0.263680	1298.313232
5606.251846	0.082848	0.263680	1373.041992
5606.252733	0.082917	0.263680	1446.589844
5606.253654	0.082914	0.263680	1522.953491
5606.254565	0.082841	0.263680	1598.421265
5606.255466	0.082965	0.263680	1673.172852
5606.256399	0.082896	0.263680	1750.514404
5607.296977	1.011537	0.263301	445.076202
5607.297902	0.625653	0.263301	1023.805298
5607.298802	0.086660	0.263301	1101.799438
5607.299738	0.082950	0.263301	1179.441040
5607.300643	0.082961	0.263301	1254.521118
5607.301538	0.082947	0.263301	1328.758545
5607.302427	0.082947	0.263301	1402.498291
5607.303368	0.082950	0.263301	1480.554687
5607.304266	0.082983	0.263301	1555.073730
5607.305171	0.082914	0.263301	1630.110718
5607.306093	0.082917	0.263301	1706.560669
5607.306984	0.082921	0.263301	1780.443359
5608.358358	1.015276	0.258382	452.813019
5608.359258	0.633274	0.258382	1022.759521
5608.360211	0.086257	0.258382	1104.962769
5608.361117	0.082870	0.258382	1180.042847
5608.362012	0.082928	0.258382	1254.263794
5608.362897	0.082896	0.258382	1327.626343
5608.363828	0.083002	0.258382	1404.900879
5608.364734	0.082932	0.258382	1480.037354
5608.365625	0.082958	0.258382	1553.952759
5608.366567	0.083016	0.258382	1632.154175
5608.367464	0.082961	0.258382	1706.570557
5608.368367	0.082998	0.258382	1781.517822
5609.403859	1.014705	0.265009	449.514130
5609.404772	0.628260	0.265009	1023.115967
5609.405658	0.087235	0.265009	1100.406250
5609.406607	0.082906	0.265009	1179.084473
5609.407512	0.082961	0.265009	1254.164551
5609.408401	0.082921	0.265009	1327.881470
5609.409326	0.082958	0.265009	1404.617432
5609.410237	0.082954	0.265009	1480.188599
5609.411148	0.082917	0.265009	1555.726440
5609.412045	0.082921	0.265009	1630.106689
5609.412982	0.082983	0.265009	1707.862183
5609.413887	0.082925	0.265009	1782.909180
5610.470867	1.019198	0.263462	454.562347
5610.471775	0.623811	0.263462	1020.982788
5610.472711	0.086843	0.263462	1102.268066
5610.473619	0.083024	0.263462	1177.653564
5610.474525	0.082939	0.263462	1252.796753
5610.475413	0.082965	0.263462	1326.469727
5610.476365	0.082961	0.263462	1405.448975
5610.477274	0.082939	0.263462	1480.840942
5610.478175	0.082958	0.263462	1555.585937
5610.479061	0.082980	0.263462	1629.105957
5610.480003	0.083024	0.263462	1707.314209
5610.480911	0.082972	0.263462	1782.653198
5611.510737	1.014045	0.265738	452.264221
5611.511641	0.636244	0.265738	1027.428711
5611.512599	0.087052	0.265738	1110.824585
5611.513497	0.082863	0.265738	1185.235107
5611.514395	0.082855	0.265738	1259.639160
5611.515284	0.082899	0.265738	1333.336548
5611.516221	0.082969	0.265738	1411.078247
5611.517120	0.082888	0.265738	1485.594727
5611.518028	0.082903	0.265738	1560.870483
5611.518915	0.082896	0.265738	1634.398804
5611.519855	0.082972	0.265738	1712.392822
5611.520764	0.082972	0.265738	1787.814697
5612.582354	1.014232	0.259148	450.319092
5612.583331	0.539883	0.259148	977.784607
5612.584226	0.085375	0.259148	1054.195068
5612.585135	0.082859	0.259148	1129.513794
5612.586048	0.082874	0.259148	1205.177368
5612.586984	0.082950	0.259148	1282.818970
5612.587886	0.082885	0.259148	1357.580811
5612.588777	0.082906	0.259148	1431.450439
5612.589705	0.082943	0.259148	1508.421631
5612.590620	0.082874	0.259148	1584.250854
5612.591531	0.082914	0.259148	1659.785400
5612.592430	0.082936	0.259148	1734.344727
5613.618637	1.016814	0.266338	449.431793
5613.619621	0.535887	0.266338	976.744995
5613.620525	0.085239	0.266338	1053.801270
5613.621426	0.082859	0.266338	1128.457153
5613.622355	0.083016	0.266338	1205.579346
5613.623256	0.082954	0.266338	1280.321045
5613.624163	0.082921	0.266338	1355.530518
5613.625052	0.082939	0.266338	1429.263672
5613.625996	0.082943	0.266338	1507.562012
5613.626896	0.082950	0.266338	1582.217407
5613.627799	0.082994	0.266338	1657.161377
5613.628683	0.082914	0.266338	1730.457153
5614.693326	1.012951	0.264731	449.750031
5614.694223	0.643341	0.264731	1026.826904
5614.695108	0.087627	0.264731	1104.376709
5614.696063	0.082888	0.264731	1183.534912
5614.696981	0.082925	0.264731	1259.659912
5614.697880	0.082892	0.264731	1334.179687
5614.698806	0.082965	0.264731	1411.005371
5614.699727	0.082892	0.264731	1487.348755
5614.700635	0.082892	0.264731	1562.614502
5614.701526	0.082954	0.264731	1636.526611
5614.702461	0.082991	0.264731	1714.122925
5614.703379	0.082888	0.264731	1790.214233
5615.727581	1.024933	0.263700	461.219788
5615.728486	0.624243	0.263700	1026.159912
5615.729372	0.087111	0.263700	1103.339844
5615.730344	0.082874	0.263700	1183.892944
5615.731249	0.082848	0.263700	1258.870239
5615.732137	0.082881	0.263700	1332.468506
5615.733069	0.082921	0.263700	1409.750977
5615.733981	0.082939	0.263700	1485.391724
5615.734903	0.082885	0.263700	1561.811279
5615.735792	0.082928	0.263700	1635.534668
5615.736731	0.082896	0.263700	1713.373535
5615.737639	0.082863	0.263700	1788.612793
5616.800725	1.012972	0.264445	448.746765
5616.801619	0.634786	0.264445	1016.245789
5616.802581	0.085847	0.264445	1098.830811
5616.803492	0.082947	0.264445	1174.395264
5616.804381	0.082925	0.264445	1248.115479
5616.805308	0.083027	0.264445	1325.081787
5616.806214	0.082983	0.264445	1400.264771
5616.807127	0.082921	0.264445	1475.971802
5616.808022	0.082965	0.264445	1550.225586
5616.808947	0.082983	0.264445	1626.985229
5616.809851	0.082998	0.264445	1702.015503
5616.810749	0.082928	0.264445	1776.485229
5617.839570	1.016298	0.263410	451.236115
5617.840476	0.633014	0.263410	1024.746704
5617.841368	0.087195	0.263410	1102.524536
5617.842333	0.082961	0.263410	1182.582275
5617.843229	0.082947	0.263410	1256.902588
5617.844135	0.082976	0.263410	1332.078857
5617.845031	0.082961	0.263410	1406.412354
5617.845970	0.083049	0.263410	1484.395630
5617.846870	0.082925	0.263410	1559.027954
5617.847770	0.082885	0.263410	1633.624023
5617.848700	0.082983	0.263410	1710.798584
5617.849610	0.082928	0.263410	1786.263428
5618.907594	1.006729	0.273770	442.960541
5618.908560	0.590665	0.273770	1013.543213
5618.909463	0.085474	0.273770	1090.725952
5618.910372	0.082965	0.273770	1166.141235
5618.911262	0.083005	0.273770	1240.015991
5618.912189	0.083042	0.273770	1316.995850
5618.913090	0.082994	0.273770	1391.773804
5618.913989	0.082987	0.273770	1466.379150
5618.914876	0.082972	0.273770	1539.975708
5618.915817	0.083005	0.273770	1618.083740
5618.916727	0.082958	0.273770	1693.575317
5618.917619	0.082939	0.273770	1767.557373
5619.951562	1.003044	0.258205	437.327332
5619.952454	0.654913	0.258205	1021.510071
5619.953433	0.085558	0.258205	1105.271240
5619.954332	0.082786	0.258205	1179.695557
5619.955221	0.082947	0.258205	1253.435303
5619.956168	0.082972	0.258205	1332.010132
5619.957070	0.082917	0.258205	1406.801758
5619.957980	0.082906	0.258205	1482.246704
5619.958872	0.082998	0.258205	1556.281006
5619.959820	0.082936	0.258205	1634.904175
5619.960724	0.082928	0.258205	1709.871460
5619.961618	0.082921	0.258205	1784.002930
5621.012948	1.020359	0.273460	454.059723
5621.013853	0.630084	0.273460	1024.285889
5621.014769	0.087059	0.273460	1104.032227
5621.015700	0.082969	0.273460	1181.276123
5621.016603	0.082969	0.273460	1256.196899
5621.017499	0.082991	0.273460	1330.556641
5621.018436	0.083020	0.273460	1408.346436
5621.019339	0.082969	0.273460	1483.267212
5621.020239	0.082998	0.273460	1557.965454
5621.021127	0.082969	0.273460	1631.641724
5621.022079	0.083042	0.273460	1710.697754
5621.022986	0.082954	0.273460	1785.937134
5622.064074	1.008508	0.259325	441.726654
5622.065042	0.561874	0.259325	985.620483
5622.065949	0.085316	0.259325	1063.002197
5622.066849	0.082848	0.259325	1137.565308
5622.067740	0.082950	0.259325	1211.474121
5622.068694	0.083005	0.259325	1290.661255
5622.069601	0.082899	0.259325	1365.850830
5622.070496	0.082892	0.259325	1440.039062
5622.071424	0.082998	0.259325	1517.061279
5622.072333	0.082994	0.259325	1592.503174
5622.073242	0.082969	0.259325	1667.921753
5622.074130	0.082928	0.259325	1741.562256
5623.119309	1.010757	0.273295	445.743774
5623.120219	0.630128	0.273295	1019.160400
5623.121109	0.087213	0.273295	1096.780029
5623.122078	0.082958	0.273295	1177.166138
5623.122985	0.082928	0.273295	1252.382202
5623.123877	0.082925	0.273295	1326.351074
5623.124819	0.082914	0.273295	1404.455933
5623.125723	0.082939	0.273295	1479.433228
5623.126620	0.082965	0.273295	1553.852905
5623.127507	0.082896	0.273295	1627.381226
5623.128443	0.082969	0.273295	1705.040039
5623.129352	0.082954	0.273295	1780.445312
5624.176611	1.023468	0.257250	464.654480
5624.177557	0.564320	0.257250	998.501282
5624.178446	0.085957	0.257250	1074.917114
5624.179402	0.082885	0.257250	1154.154663
5624.180293	0.082914	0.257250	1228.030884
5624.181179	0.082965	0.257250	1301.537964
5624.182116	0.082980	0.257250	1379.290039
5624.183037	0.082874	0.257250	1455.616577
5624.183946	0.082892	0.257250	1530.965210
5624.184836	0.082932	0.257250	1604.774780
5624.185795	0.082844	0.257250	1684.222412
5624.186704	0.082910	0.257250	1759.587769
5625.226204	1.025076	0.276868	464.359283
5625.227106	0.628129	0.276868	1030.931274
5625.228059	0.086444	0.276868	1113.312500
5625.228964	0.082841	0.276868	1188.283203
5625.229863	0.082914	0.276868	1262.822754
5625.230749	0.082958	0.276868	1336.323364
5625.231675	0.082987	0.276868	1413.169434
5625.232582	0.082950	0.276868	1488.405518
5625.233481	0.082885	0.276868	1562.918701
5625.234401	0.082969	0.276868	1639.250000
5625.235329	0.082983	0.276868	1716.258545
5625.236242	0.082954	0.276868	1791.995605
5626.288607	1.023658	0.256046	460.646271
5626.289542	0.591570	0.256046	1013.764038
5626.290430	0.086147	0.256046	1090.262939
5626.291361	0.082859	0.256046	1167.404541
5626.292270	0.082958	0.256046	1242.813110
5626.293174	0.082903	0.256046	1317.757324
5626.294061	0.082914	0.256046	1391.301880
5626.295005	0.082976	0.256046	1469.631348
5626.295914	0.082830	0.256046	1544.923462
5626.296814	0.082892	0.256046	1619.526123
5626.297758	0.082947	0.256046	1697.827881
5626.298658	0.082808	0.256046	1772.354736
5627.334643	1.054431	0.276723	493.473816
5627.335566	0.565060	0.276723	1015.024048
5627.336470	0.085719	0.276723	1092.514038
5627.337356	0.082881	0.276723	1165.946533
5627.338309	0.082914	0.276723	1244.963379
5627.339225	0.082943	0.276723	1320.939209
5627.340117	0.082892	0.276723	1394.878784
5627.341038	0.083016	0.276723	1471.336914
5627.341925	0.082888	0.276723	1544.858765
5627.342868	0.082896	0.276723	1623.029175
5627.343787	0.082917	0.276723	1699.230347
5627.344683	0.082921	0.276723	1773.527710
5628.398035	1.012192	0.261919	448.401215
5628.398963	0.614356	0.261919	1018.523071
5628.399852	0.086821	0.261919	1095.707153
5628.400775	0.082917	0.261919	1172.239990
5628.401687	0.083005	0.261919	1247.940918
5628.402593	0.082976	0.261919	1323.117187
5628.403484	0.082928	0.261919	1397.006470
5628.404412	0.082983	0.261919	1474.015015
5628.405317	0.083009	0.261919	1549.138184
5628.406223	0.082914	0.261919	1624.258057
5628.407111	0.082936	0.261919	1697.905029
5628.408068	0.083009	0.261919	1777.344727
5629.443016	1.006278	0.276014	436.724731
5629.443939	0.627828	0.276014	1016.210327
5629.444885	0.085642	0.276014	1097.227783
5629.445797	0.082855	0.276014	1172.791748
5629.446694	0.082965	0.276014	1247.211426
5629.447623	0.082947	0.276014	1324.269043
5629.448533	0.082980	0.276014	1399.780640
5629.449431	0.082947	0.276014	1474.266846
5629.450322	0.082950	0.276014	1548.175659
5629.451266	0.082965	0.276014	1626.494751
5629.452173	0.082899	0.276014	1701.684326
5629.453064	0.082947	0.276014	1775.589844
5630.507995	1.026811	0.261698	461.038361
5630.508929	0.588413	0.261698	1010.616211
5630.509823	0.086199	0.261698	1087.677856
5630.510763	0.082888	0.261698	1165.592773
5630.511658	0.082921	0.261698	1239.807129
5630.512558	0.082917	0.261698	1314.432861
5630.513445	0.082870	0.261698	1387.938477
5630.514385	0.083038	0.261698	1465.994507
5630.515289	0.082947	0.261698	1540.978394
5630.516193	0.082925	0.261698	1615.942383
5630.517083	0.082921	0.261698	1689.742187
5630.518027	0.083064	0.261698	1768.154541
5631.552973	1.001748	0.278008	436.762177
5631.553865	0.652445	0.278008	1018.743164
5631.554827	0.085822	0.278008	1101.303467
5631.555736	0.082921	0.278008	1176.678833
5631.556628	0.082980	0.278008	1250.696777
5631.557550	0.083049	0.278008	1327.268311
5631.558466	0.082987	0.278008	1403.284424
5631.559363	0.082925	0.278008	1477.667969
5631.560254	0.082874	0.278008	1551.508301
5631.561179	0.082969	0.278008	1628.254395
5631.562091	0.082848	0.278008	1703.811646
5631.562992	0.082910	0.278008	1778.513672
5632.616392	1.009548	0.265400	443.191711
5632.617355	0.565301	0.265400	987.577026
5632.618267	0.085466	0.265400	1065.522339
5632.619172	0.082848	0.265400	1140.499634
5632.620061	0.082811	0.265400	1214.118896
5632.621005	0.082943	0.265400	1292.417236
5632.621915	0.082870	0.265400	1367.828857
5632.622807	0.082874	0.265400	1441.752075
5632.623737	0.082874	0.265400	1518.824463
5632.624650	0.082998	0.265400	1594.601685
5632.625545	0.082859	0.265400	1668.760376
5632.626431	0.082947	0.265400	1742.251221
5633.662922	0.999624	0.277235	431.837555
5633.663875	0.594503	0.277235	998.399048
5633.664782	0.086019	0.277235	1076.418579
5633.665686	0.082859	0.277235	1151.322998
5633.666575	0.082921	0.277235	1225.039917
5633.667528	0.083009	0.277235	1304.147583
5633.668434	0.082991	0.277235	1379.337158
5633.669327	0.082925	0.277235	1453.389038
5633.670249	0.082947	0.277235	1529.865967
5633.671160	0.082976	0.277235	1605.457153
5633.672068	0.082892	0.277235	1680.722900
5633.672964	0.082925	0.277235	1755.023560
5634.725348	1.034158	0.266991	468.473450
5634.726253	0.616344	0.266991	1026.264771
5634.727156	0.086927	0.266991	1104.760254
5634.728099	0.082826	0.266991	1182.865112
5634.728997	0.082815	0.266991	1257.232910
5634.729886	0.082925	0.266991	1330.953125
5634.730821	0.082910	0.266991	1408.474121
5634.731741	0.082892	0.266991	1484.734619
5634.732645	0.082866	0.266991	1559.645630
5634.733536	0.082874	0.266991	1633.485962
5634.734490	0.082936	0.266991	1712.606689
5634.735398	0.082863	0.266991	1787.845947
5635.772878	1.010804	0.275624	448.797150
5635.773836	0.566858	0.275624	991.847046
5635.774734	0.086030	0.275624	1069.102295
5635.775633	0.082932	0.275624	1143.658325
5635.776521	0.082969	0.275624	1217.334595
5635.777469	0.083057	0.275624	1296.072266
5635.778370	0.082932	0.275624	1370.794067
5635.779268	0.083027	0.275624	1445.352661
5635.780192	0.082998	0.275624	1522.042847
5635.781111	0.083042	0.275624	1598.358398
5635.782017	0.082950	0.275624	1673.511475
5635.782904	0.082943	0.275624	1747.082031
5636.834268	1.021857	0.265230	454.726227
5636.835174	0.631194	0.265230	1026.587769
5636.836061	0.087166	0.265230	1103.903564
5636.837007	0.082914	0.265230	1182.340088
5636.837919	0.082961	0.265230	1258.000854
5636.838824	0.082910	0.265230	1333.034546
5636.839710	0.082903	0.265230	1406.486450
5636.840660	0.083038	0.265230	1485.372803
5636.841564	0.082892	0.265230	1560.307007
5636.842462	0.082976	0.265230	1634.819580
5636.843387	0.082998	0.265230	1711.592773
5636.844294	0.082998	0.265230	1786.871948
5637.882828	1.013075	0.275797	446.766022
5637.883805	0.538458	0.275797	972.839722
5637.884714	0.085302	0.275797	1050.378784
5637.885607	0.082896	0.275797	1124.404419
5637.886519	0.082874	0.275797	1199.985107
5637.887414	0.082958	0.275797	1274.232300
5637.888351	0.082837	0.275797	1351.850464
5637.889265	0.082925	0.275797	1427.643799
5637.890156	0.082881	0.275797	1501.490601
5637.891085	0.082954	0.275797	1578.554932
5637.892002	0.082917	0.275797	1654.590210
5637.892920	0.082917	0.275797	1730.708496
5638.943250	1.049290	0.270491	538.285583
5638.944156	0.524740	0.270491	1013.700012
5638.945062	0.085188	0.270491	1090.880371
5638.945955	0.082844	0.270491	1164.860229
5638.946896	0.082980	0.270491	1242.944214
5638.947801	0.082969	0.270491	1318.030884
5638.948708	0.082917	0.270491	1393.237061
5638.949617	0.082965	0.270491	1468.652344
5638.950556	0.083024	0.270491	1546.611572
5638.951464	0.082914	0.270491	1621.897339
5638.952357	0.082954	0.270491	1695.975342
5638.953286	0.083049	0.270491	1773.128174
5639.991254	1.017466	0.276252	456.842163
5639.992154	0.634182	0.276252	1027.606079
5639.993092	0.086927	0.276252	1109.144043
5639.993995	0.082888	0.276252	1183.992065
5639.994892	0.082958	0.276252	1258.405151
5639.995779	0.082899	0.276252	1331.936768
5639.996714	0.083002	0.276252	1409.543335
5639.997625	0.082958	0.276252	1485.117920
5639.998531	0.082899	0.276252	1560.224609
5639.999422	0.082943	0.276252	1634.126953
5640.000381	0.082961	0.276252	1713.687012
5640.001289	0.082877	0.276252	1788.939453
5641.052630	1.015613	0.268844	451.947662
5641.053526	0.641580	0.268844	1026.802979
5641.054473	0.086382	0.268844	1108.606567
5641.055368	0.082800	0.268844	1182.712891
5641.056280	0.082896	0.268844	1258.313599
5641.057178	0.082899	0.268844	1332.757080
5641.058118	0.082896	0.268844	1410.678833
5641.059038	0.082885	0.268844	1486.932617
5641.059936	0.082936	0.268844	1561.408936
5641.060894	0.082906	0.268844	1640.833374
5641.061798	0.082874	0.268844	1715.751099
5641.062719	0.082903	0.268844	1792.104614
5642.101216	1.034132	0.274334	471.564209
5642.102115	0.619662	0.274334	1028.640137
5642.103057	0.086169	0.274334	1109.811768
5642.103956	0.082877	0.274334	1184.318359
5642.104851	0.082921	0.274334	1258.532715
5642.105746	0.082877	0.274334	1332.707764
5642.106674	0.083035	0.274334	1409.763916
5642.107575	0.082969	0.274334	1484.518799
5642.108473	0.082885	0.274334	1558.949097
5642.109395	0.082961	0.274334	1635.439575
5642.110305	0.082998	0.274334	1710.967773
5642.111213	0.082969	0.274334	1786.303345
5643.164108	1.008904	0.266890	443.917633
5643.165009	0.649303	0.266890	1028.939575
5643.165937	0.087678	0.266890	1110.304932
5643.166861	0.082896	0.266890	1186.900391
5643.167773	0.082848	0.266890	1262.457642
5643.168665	0.082939	0.266890	1336.439697
5643.169600	0.082954	0.266890	1414.001831
5643.170505	0.082881	0.266890	1489.009033
5643.171408	0.082936	0.266890	1563.900024
5643.172300	0.082936	0.266890	1637.878784
5643.173249	0.082980	0.266890	1716.626587
5643.174157	0.082950	0.266890	1791.945557
5644.209639	1.032206	0.282286	468.621429
5644.210561	0.588307	0.282286	1011.040405
5644.211467	0.086107	0.282286	1089.053467
5644.212357	0.082910	0.282286	1162.843506
5644.213302	0.082987	0.282286	1241.266235
5644.214209	0.082998	0.282286	1316.545410
5644.215101	0.082961	0.282286	1390.546997
5644.216034	0.082987	0.282286	1467.973877
5644.216941	0.082994	0.282286	1543.249756
5644.217843	0.082936	0.282286	1618.057861
5644.218734	0.082885	0.282286	1691.907959
5644.219683	0.082965	0.282286	1770.641846
5645.273051	1.024215	0.265923	454.751495
5645.273985	0.598077	0.265923	1013.355835
5645.274879	0.086396	0.265923	1090.594238
5645.275825	0.082983	0.265923	1169.096558
5645.276720	0.083038	0.265923	1243.415894
5645.277624	0.082976	0.265923	1318.426270
5645.278522	0.083009	0.265923	1392.968384
5645.279451	0.083060	0.265923	1470.131348
5645.280355	0.082943	0.265923	1545.111938
5645.281260	0.082976	0.265923	1620.205322
5645.282149	0.082976	0.265923	1693.971069
5645.283086	0.083002	0.265923	1771.743652
5646.318539	1.006934	0.279116	443.050781
5646.319524	0.528300	0.279116	963.425781
5646.320425	0.085320	0.279116	1040.298950
5646.321318	0.082921	0.279116	1114.347534
5646.322228	0.082994	0.279116	1189.872437
5646.323142	0.083005	0.279116	1265.739380
5646.324050	0.082877	0.279116	1340.991821
5646.324943	0.083024	0.279116	1415.131958
5646.325880	0.082914	0.279116	1492.822266
5646.326786	0.083016	0.279116	1568.035034
5646.327687	0.082921	0.279116	1642.746948
5646.328575	0.082972	0.279116	1716.426392
5647.382531	1.071321	0.269911	529.232483
5647.383457	0.526392	0.269911	1016.671082
5647.384360	0.085250	0.269911	1093.652100
5647.385246	0.082808	0.269911	1167.019653
5647.386194	0.082939	0.269911	1245.646240
5647.387101	0.082943	0.269911	1320.875610
5647.387992	0.082961	0.269911	1394.794189
5647.388934	0.082899	0.269911	1472.885254
5647.389834	0.082976	0.269911	1547.563721
5647.390727	0.082852	0.269911	1621.550171
5647.391621	0.082954	0.269911	1695.711182
5647.392549	0.082961	0.269911	1772.699341
5648.427487	1.021461	0.284248	467.829193
5648.428433	0.563368	0.284248	1000.775269
5648.429320	0.085800	0.284248	1076.879517
5648.430264	0.082826	0.284248	1155.067139
5648.431169	0.082932	0.284248	1230.120728
5648.432061	0.082928	0.284248	1304.092896
5648.432996	0.082925	0.284248	1381.627563
5648.433917	0.082826	0.284248	1457.910278
5648.434819	0.082892	0.284248	1532.678711
5648.435711	0.082925	0.284248	1606.647583
5648.436657	0.082863	0.284248	1685.035522
5648.437563	0.082866	0.284248	1760.112305
5649.490893	1.012621	0.266415	448.591003
5649.491796	0.626437	0.266415	1014.263428
5649.492771	0.085309	0.266415	1097.439575
5649.493687	0.082844	0.266415	1173.324951
5649.494578	0.082980	0.266415	1247.259888
5649.495508	0.082987	0.266415	1324.437866
5649.496412	0.083016	0.266415	1399.484619
5649.497314	0.082980	0.266415	1474.332397
5649.498208	0.082972	0.266415	1548.509766
5649.499162	0.083035	0.266415	1627.724854
5649.500064	0.082972	0.266415	1702.565918
5649.500962	0.083027	0.266415	1777.124512
5650.539485	1.030573	0.286371	464.788208
5650.540412	0.591837	0.286371	1013.421265
5650.541309	0.086257	0.286371	1090.794067
5650.542244	0.082925	0.286371	1168.328735
5650.543153	0.082917	0.286371	1243.700684
5650.544058	0.082899	0.286371	1318.724487
5650.544947	0.082939	0.286371	1392.457642
5650.545892	0.082998	0.286371	1470.890747
5650.546792	0.082899	0.286371	1545.500000
5650.547686	0.082906	0.286371	1619.618408
5650.548620	0.082980	0.286371	1697.121460
5650.549527	0.082994	0.286371	1772.397339
5651.599835	1.026775	0.267341	458.968384
5651.600752	0.596287	0.267341	1005.763184
5651.601685	0.085529	0.267341	1085.561279
5651.602581	0.082822	0.267341	1159.770020
5651.603540	0.082947	0.267341	1239.315918
5651.604440	0.082866	0.267341	1313.895508
5651.605331	0.082903	0.267341	1387.761963
5651.606285	0.082932	0.267341	1466.879150
5651.607190	0.082837	0.267341	1541.846558
5651.608102	0.082965	0.267341	1617.510742
5651.608998	0.082855	0.267341	1691.749023
5651.609934	0.082925	0.267341	1769.366699
5652.648927	1.026775	0.286307	464.102234
5652.649851	0.602179	0.286307	1020.515564
5652.650741	0.086528	0.286307	1097.525757
5652.651659	0.082896	0.286307	1173.623779
5652.652568	0.083002	0.286307	1249.072388
5652.653480	0.082961	0.286307	1324.733154
5652.654378	0.082925	0.286307	1399.199585
5652.655304	0.083020	0.286307	1476.076172
5652.656210	0.083009	0.286307	1551.282349
5652.657112	0.082914	0.286307	1626.070557
5652.658001	0.082903	0.286307	1699.771240
5652.658946	0.082987	0.286307	1778.193970
5653.706204	1.026808	0.267660	462.063507
5653.707109	0.617593	0.267660	1020.984985
5653.707998	0.086960	0.267660	1098.292847
5653.708960	0.082980	0.267660	1178.119385
5653.709870	0.082906	0.267660	1253.564331
5653.710766	0.082943	0.267660	1327.881348
5653.711693	0.082976	0.267660	1404.800171
5653.712594	0.083020	0.267660	1479.601196
5653.713487	0.082980	0.267660	1553.702148
5653.714376	0.083016	0.267660	1627.503662
5653.715334	0.083031	0.267660	1707.047363
5653.716234	0.083016	0.267660	1781.762085
5654.761465	1.025222	0.284184	498.257996
5654.762393	0.538066	0.284184	997.583618
5654.763303	0.085250	0.284184	1075.161377
5654.764202	0.082848	0.284184	1149.641602
5654.765153	0.082855	0.284184	1228.436890
5654.766062	0.082899	0.284184	1303.792236
5654.766962	0.082870	0.284184	1378.375122
5654.767846	0.082896	0.284184	1451.654785
5654.768779	0.082972	0.284184	1529.067993
5654.769689	0.082947	0.284184	1604.549561
5654.770591	0.082925	0.284184	1679.347778
5654.771509	0.082921	0.284184	1755.469360
5655.812581	1.037545	0.270447	477.270782
5655.813494	0.597506	0.270447	1022.793823
5655.814385	0.086473	0.270447	1099.841553
5655.815320	0.082892	0.270447	1177.345459
5655.816239	0.082947	0.270447	1253.573486
5655.817142	0.082910	0.270447	1328.441406
5655.818032	0.082932	0.270447	1402.250977
5655.818980	0.082932	0.270447	1480.870605
5655.819888	0.082917	0.270447	1556.159668
5655.820794	0.082874	0.270447	1631.243042
5655.821691	0.082899	0.270447	1705.603638
5655.822625	0.082928	0.270447	1783.058838
5656.873928	1.001235	0.283708	434.536163
5656.874882	0.580426	0.283708	988.262573
5656.875797	0.085620	0.283708	1066.604980
5656.876703	0.082855	0.283708	1141.671875
5656.877597	0.082896	0.283708	1215.780518
5656.878557	0.082928	0.283708	1295.391846
5656.879469	0.082899	0.283708	1370.995850
5656.880363	0.082815	0.283708	1445.032471
5656.881300	0.082910	0.283708	1522.719238
5656.882205	0.082881	0.283708	1597.726440
5656.883113	0.082870	0.283708	1672.972290
5656.884006	0.082947	0.283708	1747.043701
5657.918938	1.024468	0.273142	457.937073
5657.919848	0.620032	0.273142	1022.165955
5657.920736	0.086949	0.273142	1099.377075
5657.921696	0.082947	0.273142	1179.005981
5657.922609	0.082917	0.273142	1254.709595
5657.923496	0.082899	0.273142	1328.241211
5657.924409	0.082877	0.273142	1403.908081
5657.925350	0.083002	0.273142	1482.012695
5657.926262	0.082877	0.273142	1557.596680
5657.927163	0.082906	0.273142	1632.295410
5657.928098	0.083013	0.273142	1709.912231
5657.929000	0.082870	0.273142	1784.660889
5658.985472	1.048550	0.279704	514.838013
5658.986406	0.544438	0.279704	1023.343567
5658.987329	0.084873	0.279704	1101.681396
5658.988221	0.082877	0.279704	1175.607910
5658.989177	0.082888	0.279704	1254.848999
5658.990070	0.082844	0.279704	1328.828857
5658.990962	0.082903	0.279704	1402.778198
5658.991882	0.082925	0.279704	1479.068970
5658.992806	0.082932	0.279704	1555.698242
5658.993713	0.082881	0.279704	1630.871216
5658.994603	0.082928	0.279704	1704.677490
5658.995538	0.082903	0.279704	1782.191650
5660.026322	1.011511	0.278375	449.110962
5660.027220	0.638405	0.278375	1022.398254
5660.028175	0.085635	0.278375	1104.179443
5660.029078	0.082881	0.278375	1179.020874
5660.029974	0.082888	0.278375	1253.288696
5660.030883	0.082896	0.278375	1328.640747
5660.031802	0.082932	0.278375	1404.855347
5660.032709	0.082925	0.278375	1480.068115
5660.033599	0.082833	0.278375	1553.789673
5660.034523	0.082969	0.278375	1630.452759
5660.035433	0.082906	0.278375	1705.897705
5660.036335	0.082852	0.278375	1780.629761
5661.097442	1.016953	0.278951	469.832336
5661.098392	0.555385	0.278951	997.447632
5661.099302	0.085444	0.278951	1075.202026
5661.100191	0.082830	0.278951	1148.837524
5661.101118	0.082980	0.278951	1225.759766
5661.102020	0.082852	0.278951	1300.491821
5661.102920	0.082943	0.278951	1375.140625
5661.103808	0.082969	0.278951	1448.816895
5661.104759	0.082936	0.278951	1527.688843
5661.105671	0.082841	0.278951	1603.239502
5661.106567	0.082885	0.278951	1677.504028
5661.107486	0.082965	0.278951	1753.748901
5662.134762	1.029675	0.278306	467.472626
5662.135680	0.594331	0.278306	1013.068481
5662.136584	0.086049	0.278306	1090.856445
5662.137511	0.082874	0.278306	1167.680176
5662.138421	0.082928	0.278306	1243.145020
5662.139326	0.082888	0.278306	1318.158813
5662.140217	0.082830	0.278306	1391.959961
5662.141166	0.082910	0.278306	1470.641724
5662.142068	0.082837	0.278306	1545.360596
5662.142966	0.082885	0.278306	1619.790894
5662.143852	0.082863	0.278306	1693.207153
5662.144793	0.082998	0.278306	1771.308350
5663.206345	1.001184	0.278995	436.516266
5663.207240	0.654767	0.278995	1022.532593
5663.208186	0.086056	0.278995	1103.941528
5663.209112	0.082804	0.278995	1180.618042
5663.210008	0.082910	0.278995	1254.905518
5663.210898	0.082896	0.278995	1328.682495
5663.211842	0.083013	0.278995	1407.046509
5663.212743	0.082914	0.278995	1481.751831
5663.213633	0.082863	0.278995	1555.499512
5663.214581	0.082903	0.278995	1634.091431
5663.215482	0.082881	0.278995	1708.767090
5663.216376	0.082822	0.278995	1782.810181
5664.244241	1.090869	0.280131	551.979797
5664.245169	0.507993	0.280131	1023.397461
5664.246065	0.084932	0.280131	1099.496216
5664.246952	0.082782	0.280131	1172.923828
5664.247889	0.082906	0.280131	1250.607178
5664.248802	0.082822	0.280131	1326.223877
5664.249698	0.082881	0.280131	1400.485107
5664.250630	0.082874	0.280131	1477.723267
5664.251536	0.082885	0.280131	1552.816650
5664.252436	0.082811	0.280131	1627.346802
5664.253326	0.082852	0.280131	1701.084717
5664.254278	0.082885	0.280131	1779.990723
5665.315285	1.020875	0.276445	456.331207
5665.316188	0.622555	0.276445	1018.498291
5665.317120	0.087041	0.276445	1099.620483
5665.318038	0.082943	0.276445	1175.762207
5665.318945	0.082980	0.276445	1251.024780
5665.319837	0.082943	0.276445	1325.010010
5665.320774	0.082991	0.276445	1402.772339
5665.321683	0.082954	0.276445	1478.177612
5665.322577	0.082958	0.276445	1552.341797
5665.323467	0.082925	0.276445	1626.144897
5665.324405	0.083068	0.276445	1704.062378
5665.325314	0.082899	0.276445	1779.417725
5666.355173	1.022900	0.283982	463.373840
5666.356081	0.618358	0.283982	1024.843018
5666.356968	0.086755	0.283982	1101.795044
5666.357903	0.082833	0.283982	1179.244141
5666.358824	0.082936	0.283982	1255.628052
5666.359728	0.082892	0.283982	1330.562256
5666.360618	0.082906	0.283982	1404.348999
5666.361550	0.082958	0.283982	1481.665649
5666.362468	0.082808	0.283982	1557.682983
5666.363365	0.082932	0.283982	1632.073120
5666.364305	0.082921	0.283982	1710.019043
5666.365210	0.082925	0.283982	1785.066040
5667.423177	1.006252	0.279950	439.732300
5667.424162	0.537693	0.279950	969.359741
5667.425069	0.085485	0.279950	1046.894287
5667.425959	0.082921	0.279950	1120.694092
5667.426888	0.082994	0.279950	1197.795898
5667.427795	0.082969	0.279950	1273.048584
5667.428693	0.082983	0.279950	1347.567627
5667.429587	0.082961	0.279950	1421.735107
5667.430511	0.083057	0.279950	1498.479492
5667.431417	0.082994	0.279950	1573.672363
5667.432317	0.082980	0.279950	1648.354126
5667.433201	0.082943	0.279950	1721.675781
5668.465620	1.013602	0.281646	448.012238
5668.466513	0.635530	0.281646	1015.540283
5668.467467	0.086023	0.281646	1097.606201
5668.468377	0.082841	0.281646	1172.991089
5668.469273	0.082928	0.281646	1247.295044
5668.470202	0.083049	0.281646	1324.447876
5668.471114	0.082917	0.281646	1400.068604
5668.472015	0.082848	0.281646	1474.714600
5668.472906	0.082917	0.281646	1548.594116
5668.473838	0.082965	0.281646	1625.917603
5668.474736	0.082943	0.281646	1700.400513
5668.475638	0.083005	0.281646	1775.271362
5669.530624	1.045734	0.279930	516.592468
5669.531571	0.503518	0.279930	993.424072
5669.532468	0.084877	0.279930	1069.558472
5669.533398	0.082950	0.279930	1146.702393
5669.534301	0.082980	0.279930	1221.633057
5669.535202	0.082932	0.279930	1296.354858
5669.536098	0.082925	0.279930	1370.655518
5669.537048	0.083057	0.279930	1449.559326
5669.537952	0.082991	0.279930	1524.582886
5669.538850	0.082943	0.279930	1599.065796
5669.539741	0.082928	0.279930	1672.955078
5669.540691	0.082972	0.279930	1751.778809
5670.576644	1.028580	0.285485	509.147247
5670.577570	0.545500	0.285485	1014.280640
5670.578464	0.085481	0.285485	1090.700562
5670.579351	0.082815	0.285485	1164.157471
5670.580285	0.083013	0.285485	1241.691284
5670.581194	0.082939	0.285485	1317.083252
5670.582099	0.082936	0.285485	1392.140137
5670.582987	0.082921	0.285485	1465.774170
5670.583929	0.083020	0.285485	1543.979004
5670.584835	0.082903	0.285485	1619.088989
5670.585726	0.082980	0.285485	1693.023926
5670.586674	0.082969	0.285485	1771.678345
5671.637991	1.032671	0.284534	476.061279
5671.638889	0.613001	0.284534	1026.535767
5671.639825	0.086821	0.284534	1107.800537
5671.640736	0.082925	0.284534	1183.344971
5671.641643	0.082936	0.284534	1258.567749
5671.642541	0.082903	0.284534	1333.014526
5671.643468	0.082965	0.284534	1409.923096
5671.644367	0.082936	0.284534	1484.482422
5671.645267	0.083020	0.284534	1559.200439
5671.646181	0.082932	0.284534	1635.000366
5671.647071	0.082917	0.284534	1708.796875
5671.648009	0.082877	0.284534	1786.535645
5672.687587	1.030455	0.282230	468.857117
5672.688494	0.610543	0.282230	1022.619812
5672.689381	0.086777	0.282230	1099.591309
5672.690318	0.082980	0.282230	1177.343262
5672.691240	0.082980	0.282230	1253.850586
5672.692145	0.082896	0.282230	1328.870972
5672.693034	0.082969	0.282230	1402.630127
5672.693976	0.082983	0.282230	1480.800537
5672.694882	0.082958	0.282230	1555.960327
5672.695774	0.082925	0.282230	1629.929199
5672.696707	0.082961	0.282230	1707.332153
5672.697610	0.082965	0.282230	1782.249634
5673.746430	1.048890	0.281900	515.005188
5673.747348	0.550657	0.281900	1020.508057
5673.748249	0.085646	0.281900	1097.674927
5673.749140	0.082859	0.281900	1171.502197
5673.750078	0.083013	0.281900	1249.368164
5673.750982	0.082972	0.281900	1324.375244
5673.751888	0.082954	0.281900	1399.531616
5673.752789	0.082906	0.281900	1474.230347
5673.753724	0.082943	0.281900	1551.782104
5673.754629	0.082906	0.281900	1626.812500
5673.755527	0.082969	0.281900	1701.318481
5673.756452	0.082972	0.281900	1778.067993
5674.798537	1.003231	0.284486	436.405609
5674.799473	0.630483	0.284486	1026.538086
5674.800384	0.085924	0.284486	1104.814941
5674.801296	0.082786	0.284486	1180.315430
5674.802192	0.082928	0.284486	1254.619385
5674.803133	0.082928	0.284486	1332.655029
5674.804041	0.082888	0.284486	1407.917480
5674.804943	0.082914	0.284486	1482.705811
5674.805829	0.082954	0.284486	1556.203125
5674.806774	0.082950	0.284486	1634.591309
5674.807679	0.082950	0.284486	1709.661499
5674.808568	0.082972	0.284486	1783.423950
5675.855318	1.015792	0.285332	452.027557
5675.856212	0.632615	0.285332	1017.585205
5675.857161	0.086027	0.285332	1099.224487
5675.858055	0.082870	0.285332	1173.310181
5675.858945	0.082896	0.285332	1247.087158
5675.859880	0.082961	0.285332	1324.656128
5675.860790	0.082987	0.285332	1400.174316
5675.861697	0.082921	0.285332	1475.383789
5675.862585	0.082903	0.285332	1549.001465
5675.863533	0.082925	0.285332	1627.614136
5675.864441	0.082877	0.285332	1702.866577
5675.865341	0.082921	0.285332	1777.495605
5676.906976	1.030009	0.282198	465.563873
5676.907882	0.621625	0.282198	1028.755859
5676.908770	0.086931	0.282198	1105.950684
5676.909714	0.082943	0.282198	1184.249023
5676.910611	0.082983	0.282198	1258.685181
5676.911509	0.082987	0.282198	1333.207520
5676.912398	0.082961	0.282198	1406.960205
5676.913348	0.082903	0.282198	1485.717896
5676.914252	0.082874	0.282198	1560.635620
5676.915146	0.082881	0.282198	1634.731079
5676.916070	0.082958	0.282198	1711.384033
5676.916974	0.082980	0.282198	1786.397705
5677.964255	1.029939	0.284135	469.652222
5677.965152	0.619054	0.284135	1024.943604
5677.966096	0.086257	0.284135	1106.370483
5677.967006	0.082811	0.284135	1181.728760
5677.967915	0.082921	0.284135	1257.104126
5677.968804	0.082925	0.284135	1330.824219
5677.969754	0.082928	0.284135	1409.606201
5677.970658	0.082885	0.284135	1484.533813
5677.971553	0.082921	0.284135	1558.748291
5677.972478	0.082837	0.284135	1635.372437
5677.973387	0.082976	0.284135	1710.797729
5677.974296	0.082936	0.284135	1786.186401
5679.016982	1.085966	0.289501	548.412598
5679.017898	0.526520	0.289501	1030.704712
5679.018785	0.085294	0.289501	1106.360596
5679.019720	0.082793	0.289501	1183.771973
5679.020634	0.082921	0.289501	1259.561890
5679.021539	0.082892	0.289501	1334.578979
5679.022429	0.082863	0.289501	1408.326660
5679.023379	0.082980	0.289501	1487.157471
5679.024281	0.082811	0.289501	1561.853271
5679.025178	0.082899	0.289501	1636.213867
5679.026085	0.082896	0.289501	1711.400146
5679.027014	0.082925	0.289501	1788.437256
5680.074195	1.011724	0.285924	446.170135
5680.075095	0.641202	0.285924	1023.252319
5680.076036	0.085994	0.285924	1104.172363
5680.076950	0.082906	0.285924	1179.948853
5680.077855	0.082852	0.285924	1254.929565
5680.078740	0.082991	0.285924	1328.376343
5680.079690	0.082983	0.285924	1407.210571
5680.080600	0.082885	0.285924	1482.635498
5680.081492	0.082947	0.285924	1556.624023
5680.082425	0.082947	0.285924	1634.013428
5680.083326	0.082976	0.285924	1708.774902
5680.084232	0.082939	0.285924	1783.918091
5681.124811	1.004802	0.283217	436.084167
5681.125769	0.580975	0.283217	992.658569
5681.126674	0.085675	0.283217	1070.194458
5681.127576	0.082881	0.283217	1144.953003
5681.128465	0.082910	0.283217	1218.660156
5681.129411	0.083020	0.283217	1297.197144
5681.130316	0.082855	0.283217	1372.181152
5681.131207	0.082932	0.283217	1446.073730
5681.132122	0.082917	0.283217	1521.943237
5681.133031	0.082983	0.283217	1597.375122
5681.133940	0.082950	0.283217	1672.777100
5681.134835	0.082943	0.283217	1747.011230
5682.184148	1.008021	0.283015	448.569458
5682.185051	0.638313	0.283015	1024.966064
5682.185939	0.087466	0.283015	1102.635742
5682.186912	0.082896	0.283015	1183.293091
5682.187810	0.082903	0.283015	1257.739868
5682.188700	0.082888	0.283015	1331.510376
5682.189623	0.082954	0.283015	1408.077026
5682.190534	0.082910	0.283015	1483.608154
5682.191439	0.082925	0.283015	1558.655151
5682.192328	0.082947	0.283015	1632.394775
5682.193261	0.082943	0.283015	1709.780762
5682.194174	0.082888	0.283015	1785.457642
5683.233761	1.035736	0.289046	475.402863
5683.234667	0.611678	0.289046	1029.583618
5683.235609	0.085972	0.289046	1110.568970
5683.236519	0.082885	0.289046	1185.993896
5683.237426	0.082932	0.289046	1261.213379
5683.238315	0.082877	0.289046	1334.891235
5683.239257	0.082969	0.289046	1413.047852
5683.240159	0.082896	0.289046	1487.819580
5683.241050	0.082939	0.289046	1561.718628
5683.241974	0.082910	0.289046	1638.327637
5683.242888	0.082943	0.289046	1714.137695
5683.243798	0.082888	0.289046	1789.565918
5684.296145	1.011863	0.286653	446.231476
5684.297048	0.642341	0.286653	1026.265625
5684.297937	0.087385	0.286653	1103.951172
5684.298886	0.082833	0.286653	1182.559937
5684.299790	0.082892	0.286653	1257.494141
5684.300687	0.082881	0.286653	1331.838257
5684.301574	0.082775	0.286653	1405.259399
5684.302501	0.082947	0.286653	1482.151123
5684.303416	0.082859	0.286653	1557.967041
5684.304316	0.082954	0.286653	1632.625732
5684.305247	0.082885	0.286653	1709.791260
5684.306158	0.082870	0.286653	1785.285767
5685.341148	1.034524	0.288562	474.846436
5685.342076	0.575380	0.288562	1008.798706
5685.342975	0.085906	0.288562	1086.027954
5685.343941	0.082874	0.288562	1166.083740
5685.344861	0.082954	0.288562	1242.401489
5685.345755	0.082899	0.288562	1316.513306
5685.346721	0.082899	0.288562	1396.593872
5685.347627	0.082914	0.288562	1471.713745
5685.348516	0.082947	0.288562	1545.453369
5685.349469	0.083016	0.288562	1624.567993
5685.350375	0.082848	0.288562	1699.628174
5685.351291	0.082939	0.288562	1775.600708
5686.407125	1.014203	0.282766	451.320251
5686.408020	0.634797	0.282766	1019.463928
5686.408980	0.086023	0.282766	1102.045898
5686.409892	0.082877	0.282766	1177.629883
5686.410783	0.082925	0.282766	1251.515869
5686.411715	0.082910	0.282766	1328.788086
5686.412620	0.082921	0.282766	1403.831665
5686.413527	0.082910	0.282766	1479.031128
5686.414421	0.082932	0.282766	1553.172485
5686.415381	0.082969	0.282766	1632.822510
5686.416279	0.082888	0.282766	1707.256104
5686.417184	0.082866	0.282766	1782.250000
5687.449043	1.016906	0.290041	450.489166
5687.449971	0.602234	0.290041	1009.362183
5687.450869	0.086371	0.290041	1086.923218
5687.451801	0.082917	0.290041	1164.202271
5687.452702	0.082899	0.290041	1238.894409
5687.453605	0.082896	0.290041	1313.749023
5687.454495	0.082885	0.290041	1387.516235
5687.455438	0.082976	0.290041	1465.762695
5687.456348	0.082888	0.290041	1541.190918
5687.457234	0.082870	0.290041	1614.613647
5687.458147	0.082954	0.290041	1690.350708
5687.459085	0.082928	0.290041	1768.137573
5688.518100	1.014800	0.287813	447.526672
5688.519051	0.611506	0.287813	1029.069214
5688.519965	0.085631	0.287813	1107.336060
5688.520863	0.082870	0.287813	1181.753174
5688.521752	0.082866	0.287813	1255.421265
5688.522702	0.082888	0.287813	1334.165039
5688.523607	0.082910	0.287813	1409.198730
5688.524526	0.082881	0.287813	1485.366211
5688.525416	0.082870	0.287813	1559.120361
5688.526365	0.082833	0.287813	1637.729126
5688.527264	0.082852	0.287813	1712.212646
5688.528153	0.082928	0.287813	1785.936035
5689.557447	0.998947	0.288437	435.540680
5689.558428	0.551781	0.288437	976.837891
5689.559320	0.085419	0.288437	1053.031372
5689.560229	0.082800	0.288437	1128.296875
5689.561120	0.082797	0.288437	1202.068726
5689.562084	0.082903	0.288437	1281.987061
5689.562991	0.082844	0.288437	1357.126831
5689.563887	0.082903	0.288437	1431.407715
5689.564816	0.082980	0.288437	1508.495850
5689.565717	0.082961	0.288437	1583.244141
5689.566617	0.082885	0.288437	1657.840210
5689.567504	0.082874	0.288437	1731.348999
5690.627536	1.006223	0.285674	441.731995
5690.628498	0.555916	0.285674	976.522766
5690.629405	0.085532	0.285674	1054.100464
5690.630301	0.082819	0.285674	1128.305908
5690.631228	0.082885	0.285674	1205.139893
5690.632134	0.082947	0.285674	1280.289673
5690.633031	0.082903	0.285674	1354.653564
5690.633926	0.082815	0.285674	1428.772949
5690.634865	0.082914	0.285674	1506.629028
5690.635770	0.082943	0.285674	1581.692505
5690.636678	0.082903	0.285674	1656.968262
5690.637571	0.082958	0.285674	1731.049561
5691.665884	1.027266	0.290105	465.351288
5691.666783	0.621746	0.290105	1024.300537
5691.667693	0.087001	0.290105	1103.471191
5691.668615	0.082965	0.290105	1179.964966
5691.669519	0.082976	0.290105	1254.975342
5691.670414	0.082936	0.290105	1329.202881
5691.671341	0.082910	0.290105	1406.060547
5691.672248	0.082987	0.290105	1481.329834
5691.673154	0.082914	0.290105	1556.449707
5691.674043	0.082943	0.290105	1630.186157
5691.675003	0.082991	0.290105	1709.857300
5691.675912	0.082892	0.290105	1785.205933
5692.737475	1.000349	0.289130	434.151489
5692.738451	0.570912	0.289130	991.361511
5692.739368	0.085463	0.289130	1069.730713
5692.740258	0.082859	0.289130	1143.475098
5692.741187	0.082881	0.289130	1220.471436
5692.742091	0.082947	0.289130	1295.455322
5692.742988	0.082852	0.289130	1369.773193
5692.743875	0.082885	0.289130	1443.291748
5692.744816	0.082980	0.289130	1521.375732
5692.745714	0.082892	0.289130	1595.812622
5692.746614	0.082947	0.289130	1670.464722
5692.747502	0.082972	0.289130	1744.144165
5693.775315	1.019945	0.286919	455.915436
5693.776220	0.634592	0.286919	1030.221436
5693.777109	0.087290	0.286919	1107.822266
5693.778078	0.082958	0.286919	1188.208374
5693.778976	0.082910	0.286919	1262.661743
5693.779877	0.082914	0.286919	1337.367065
5693.780767	0.082947	0.286919	1411.189697
5693.781702	0.082932	0.286919	1488.731201
5693.782613	0.082863	0.286919	1564.218994
5693.783509	0.082910	0.286919	1638.506470
5693.784430	0.082943	0.286919	1714.897095
5693.785348	0.082914	0.286919	1791.011963
5694.846414	1.015803	0.289860	448.985016
5694.847312	0.616377	0.289860	1002.491455
5694.848289	0.085104	0.289860	1085.637817
5694.849193	0.082852	0.289860	1160.535645
5694.850094	0.082947	0.289860	1235.270752
5694.851027	0.082965	0.289860	1312.677124
5694.851936	0.082936	0.289860	1388.065796
5694.852836	0.082906	0.289860	1462.681641
5694.853727	0.082943	0.289860	1536.583984
5694.854670	0.082980	0.289860	1614.833862
5694.855566	0.082892	0.289860	1689.104980
5694.856464	0.082917	0.289860	1763.564819
5695.886296	1.022318	0.287322	459.020782
5695.887196	0.629960	0.287322	1025.984497
5695.888096	0.087162	0.287322	1104.430176
5695.889050	0.082906	0.287322	1183.522949
5695.889942	0.082892	0.287322	1257.462524
5695.890834	0.082928	0.287322	1331.434692
5695.891766	0.082972	0.287322	1408.765015
5695.892672	0.082910	0.287322	1483.881592
5695.893592	0.082950	0.287322	1560.196045
5695.894491	0.082932	0.287322	1634.752075
5695.895445	0.082947	0.287322	1713.883301
5695.896353	0.082888	0.287322	1789.145752
5696.953808	1.018436	0.295133	449.130402
5696.954766	0.575270	0.295133	1000.238770
5696.955674	0.085876	0.295133	1078.214600
5696.956563	0.082881	0.295133	1151.895630
5696.957494	0.082939	0.295133	1229.112305
5696.958401	0.082954	0.295133	1304.351685
5696.959301	0.082877	0.295133	1378.941162
5696.960193	0.082928	0.295133	1452.913330
5696.961140	0.082983	0.295133	1531.498657
5696.962042	0.082899	0.295133	1606.273682
5696.962936	0.082917	0.295133	1680.401855
5696.963840	0.082969	0.295133	1755.405640
5697.997322	1.041709	0.283616	519.812744
5697.998243	0.538455	0.283616	1015.729431
5697.999140	0.085404	0.283616	1092.336914
5698.000031	0.082826	0.283616	1166.134766
5698.000963	0.083009	0.283616	1243.499146
5698.001868	0.082947	0.283616	1318.565918
5698.002774	0.082877	0.283616	1393.652710
5698.003661	0.082888	0.283616	1467.174561
5698.004611	0.082972	0.283616	1545.998291
5698.005524	0.082921	0.283616	1621.705322
5698.006420	0.082936	0.283616	1696.015747
5698.007355	0.083016	0.283616	1773.635986
5699.061217	1.023571	0.299773	473.913147
5699.062167	0.548394	0.299773	994.887024
5699.063057	0.085704	0.299773	1071.163940
5699.063944	0.082906	0.299773	1144.702026
5699.064895	0.083016	0.299773	1223.650635
5699.065790	0.082961	0.299773	1297.901123
5699.066703	0.082921	0.299773	1373.608154
5699.067600	0.082991	0.299773	1448.050781
5699.068550	0.082965	0.299773	1526.867554
5699.069449	0.082976	0.299773	1601.463013
5699.070342	0.083024	0.299773	1675.603149
5699.071269	0.083049	0.299773	1752.589844
5700.109259	1.008091	0.283958	443.559967
5700.110154	0.633655	0.283958	1010.681030
5700.111120	0.085627	0.283958	1093.397095
5700.112029	0.082830	0.283958	1168.689209
5700.112925	0.082925	0.283958	1242.989868
5700.113857	0.082976	0.283958	1320.323608
5700.114760	0.082994	0.283958	1395.267578
5700.115658	0.082987	0.283958	1469.789917
5700.116544	0.082943	0.283958	1543.277466
5700.117483	0.083031	0.283958	1621.243530
5700.118378	0.082936	0.283958	1695.471069
5700.119276	0.082925	0.283958	1769.937500
5701.167572	1.016027	0.298448	452.131836
5701.168494	0.614312	0.298448	1018.527039
5701.169394	0.086473	0.298448	1096.353027
5701.170332	0.082965	0.298448	1174.174316
5701.171229	0.082972	0.298448	1248.600586
5701.172128	0.082972	0.298448	1323.192749
5701.173018	0.082991	0.298448	1397.054443
5701.173965	0.083002	0.298448	1475.657104
5701.174867	0.082987	0.298448	1550.511475
5701.175772	0.083009	0.298448	1625.634644
5701.176660	0.082921	0.298448	1699.268555
5701.177607	0.082976	0.298448	1777.846924
5702.221266	1.018733	0.280816	452.317413
5702.222174	0.629919	0.280816	1024.284302
5702.223060	0.087155	0.280816	1101.503174
5702.224025	0.082932	0.280816	1181.532715
5702.224924	0.082994	0.280816	1256.144653
5702.225819	0.082965	0.280816	1330.398437
5702.226753	0.082958	0.280816	1407.880981
5702.227661	0.083024	0.280816	1483.266479
5702.228566	0.083020	0.280816	1558.399658
5702.229456	0.082917	0.280816	1632.196167
5702.230390	0.083016	0.280816	1709.733398
5702.231300	0.083002	0.280816	1785.264893
5703.274960	1.011694	0.299721	449.192261
5703.275861	0.637610	0.299721	1023.678711
5703.276750	0.087502	0.299721	1101.468384
5703.277708	0.082892	0.299721	1180.878784
5703.278609	0.082928	0.299721	1255.597290
5703.279497	0.082961	0.299721	1329.267090
5703.280425	0.082972	0.299721	1406.265503
5703.281340	0.082896	0.299721	1482.114868
5703.282241	0.082925	0.299721	1556.830078
5703.283131	0.082965	0.299721	1630.668945
5703.284063	0.082998	0.299721	1708.023071
5703.284967	0.082969	0.299721	1783.026855
5704.332749	1.008439	0.281452	445.729919
5704.333722	0.550367	0.281452	981.237488
5704.334622	0.085558	0.281452	1058.239502
5704.335528	0.082969	0.281452	1133.409180
5704.336441	0.082991	0.281452	1209.179687
5704.337366	0.083042	0.281452	1285.993530
5704.338272	0.082910	0.281452	1361.110107
5704.339170	0.082917	0.281452	1435.569946
5704.340089	0.082969	0.281452	1511.818237
5704.340989	0.082917	0.281452	1586.443970
5704.341884	0.082980	0.281452	1660.710815
5704.342769	0.082914	0.281452	1734.089600
5705.382342	1.006249	0.299000	438.724426
5705.383324	0.567264	0.299000	995.778015
5705.384235	0.085009	0.299000	1073.220825
5705.385129	0.082888	0.299000	1147.322876
5705.386015	0.082939	0.299000	1220.807251
5705.386944	0.082947	0.299000	1297.864746
5705.387851	0.082910	0.299000	1373.064209
5705.388750	0.082950	0.299000	1447.636597
5705.389657	0.082921	0.299000	1522.846069
5705.390584	0.082976	0.299000	1599.764893
5705.391496	0.082936	0.299000	1675.402344
5705.392386	0.082969	0.299000	1749.244507
5706.443739	1.024753	0.279487	453.965790
5706.444668	0.599359	0.279487	1010.770386
5706.445566	0.086320	0.279487	1088.285400
5706.446492	0.082870	0.279487	1165.022949
5706.447407	0.082939	0.279487	1240.912598
5706.448314	0.082994	0.279487	1316.188477
5706.449200	0.082877	0.279487	1389.617676
5706.450139	0.082965	0.279487	1467.521851
5706.451041	0.082899	0.279487	1542.296875
5706.451943	0.082888	0.279487	1617.062012
5706.452836	0.082833	0.279487	1691.032104
5706.453770	0.082939	0.279487	1768.497559
5707.490266	1.023585	0.303000	453.448242
5707.491190	0.610917	0.303000	1017.935303
5707.492085	0.086547	0.303000	1095.394531
5707.493022	0.082826	0.303000	1173.002441
5707.493931	0.082932	0.303000	1248.387695
5707.494836	0.082866	0.303000	1323.381592
5707.495724	0.082892	0.303000	1396.989502
5707.496668	0.082958	0.303000	1475.301636
5707.497572	0.082896	0.303000	1550.239136
5707.498471	0.082958	0.303000	1624.818115
5707.499353	0.082932	0.303000	1697.964233
5707.500291	0.082925	0.303000	1775.747681
5708.554205	1.022347	0.282379	464.145752
5708.555107	0.622896	0.282379	1025.997559
5708.556024	0.086803	0.282379	1105.595947
5708.556935	0.082866	0.282379	1181.087036
5708.557850	0.082841	0.282379	1256.886108
5708.558745	0.082939	0.282379	1331.116943
5708.559680	0.082917	0.282379	1408.644775
5708.560591	0.082925	0.282379	1484.189209
5708.561494	0.082841	0.282379	1558.994263
5708.562380	0.082877	0.282379	1632.423462
5708.563322	0.083016	0.282379	1710.624878
5708.564232	0.082921	0.282379	1786.083130
5709.599173	0.998470	0.298537	430.340790
5709.600128	0.577888	0.298537	982.223999
5709.601039	0.085767	0.298537	1060.357422
5709.601947	0.082833	0.298537	1135.570068
5709.602836	0.082892	0.298537	1209.260864
5709.603778	0.082910	0.298537	1287.362183
5709.604684	0.082910	0.298537	1362.478760
5709.605574	0.082980	0.298537	1436.330688
5709.606501	0.082921	0.298537	1513.198608
5709.607408	0.082906	0.298537	1588.394775
5709.608314	0.082917	0.298537	1663.518066
5709.609202	0.082921	0.298537	1737.152100
5710.663630	1.012390	0.285670	448.488831
5710.664540	0.630406	0.285670	1022.158691
5710.665426	0.087228	0.285670	1099.442505
5710.666388	0.082881	0.285670	1179.173950
5710.667293	0.082954	0.285670	1254.247437
5710.668190	0.082906	0.285670	1328.614502
5710.669079	0.082855	0.285670	1402.272827
5710.670009	0.082925	0.285670	1479.392944
5710.670917	0.082881	0.285670	1554.648804
5710.671812	0.082969	0.285670	1628.905884
5710.672738	0.082925	0.285670	1705.694214
5710.673646	0.082906	0.285670	1780.973267
5711.708105	1.005297	0.303858	437.304016
5711.709007	0.637126	0.303858	1011.992065
5711.709955	0.086052	0.303858	1093.569580
5711.710867	0.082789	0.303858	1169.073486
5711.711756	0.082976	0.303858	1242.839233
5711.712700	0.082954	0.303858	1321.147949
5711.713599	0.082976	0.303858	1395.743408
5711.714501	0.082899	0.303858	1470.518433
5711.715390	0.082896	0.303858	1544.212524
5711.716334	0.082958	0.303858	1622.524658
5711.717245	0.083009	0.303858	1698.145874
5711.718143	0.082943	0.303858	1772.628784
5712.772560	1.016331	0.286166	450.234467
5712.773536	0.552722	0.286166	989.691284
5712.774437	0.085327	0.286166	1066.571045
5712.775356	0.082899	0.286166	1142.755371
5712.776242	0.082936	0.286166	1216.236450
5712.777200	0.082965	0.286166	1295.717041
5712.778102	0.082906	0.286166	1370.498657
5712.778991	0.082965	0.286166	1444.254639
5712.779927	0.082958	0.286166	1521.903076
5712.780845	0.082892	0.286166	1597.997803
5712.781744	0.082881	0.286166	1672.507690
5712.782632	0.082859	0.286166	1746.086426
5713.817553	1.016818	0.299983	452.483887
5713.818449	0.637570	0.299983	1023.746277
5713.819396	0.085781	0.299983	1104.981079
5713.820309	0.082903	0.299983	1180.671387
5713.821213	0.082976	0.299983	1255.681763
5713.822104	0.082983	0.299983	1329.619995
5713.823049	0.082972	0.299983	1408.028931
5713.823959	0.082855	0.299983	1483.427246
5713.824846	0.082863	0.299983	1556.926270
5713.825782	0.083013	0.299983	1634.626099
5713.826693	0.082936	0.299983	1710.180664
5713.827598	0.082936	0.299983	1785.237549
5714.882004	1.018824	0.286452	455.414520
5714.882962	0.554059	0.286452	986.202881
5714.883877	0.085272	0.286452	1064.226929
5714.884772	0.082800	0.286452	1138.333252
5714.885718	0.082969	0.286452	1216.821655
5714.886624	0.082896	0.286452	1291.924927
5714.887524	0.082837	0.286452	1366.478149
5714.888408	0.082841	0.286452	1439.709229
5714.889341	0.082958	0.286452	1517.108887
5714.890256	0.082881	0.286452	1592.944824
5714.891158	0.082863	0.286452	1667.686890
5714.892080	0.082881	0.286452	1744.103027
5715.927014	1.035930	0.302996	479.635651
5715.927913	0.616033	0.302996	1033.449097
5715.928854	0.086543	0.302996	1114.885986
5715.929760	0.082841	0.302996	1189.939575
5715.930667	0.082874	0.302996	1265.105835
5715.931556	0.082848	0.302996	1338.757568
5715.932488	0.082961	0.302996	1416.077637
5715.933388	0.082906	0.302996	1490.693481
5715.934294	0.082888	0.302996	1565.790161
5715.935180	0.082910	0.302996	1639.248535
5715.936111	0.082950	0.302996	1716.475342
5715.937021	0.082870	0.302996	1791.886963
5716.989922	1.037168	0.286867	478.134399
5716.990843	0.586187	0.286867	1018.012207
5716.991729	0.086356	0.286867	1094.523804
5716.992664	0.082947	0.286867	1172.079102
5716.993571	0.082804	0.286867	1247.182251
5716.994458	0.082881	0.286867	1320.697632
5716.995392	0.082965	0.286867	1398.187012
5716.996291	0.082954	0.286867	1472.762695
5716.997196	0.082874	0.286867	1547.763184
5716.998087	0.082939	0.286867	1621.662231
5716.999037	0.082976	0.286867	1700.489502
5716.999939	0.082921	0.286867	1775.284424
5718.036460	1.049667	0.305292	488.095032
5718.037372	0.587604	0.305292	1023.989624
5718.038264	0.086250	0.305292	1100.924561
5718.039224	0.082921	0.305292	1180.528809
5718.040129	0.082899	0.305292	1255.552612
5718.041021	0.082910	0.305292	1329.508423
5718.041947	0.082852	0.305292	1406.229004
5718.042853	0.082972	0.305292	1481.401978
5718.043759	0.082822	0.305292	1556.438965
5718.044651	0.082888	0.305292	1630.375244
5718.045592	0.082855	0.305292	1708.342041
5718.046494	0.082837	0.305292	1783.060913
5719.100363	1.002206	0.288542	435.959534
5719.101256	0.657532	0.288542	1023.135376
5719.102200	0.086199	0.288542	1104.506958
5719.103106	0.082888	0.288542	1179.603638
5719.104009	0.082859	0.288542	1254.425171
5719.104901	0.082939	0.288542	1328.407227
5719.105847	0.082950	0.288542	1406.878296
5719.106753	0.082932	0.288542	1482.014771
5719.107642	0.082980	0.288542	1555.783813
5719.108565	0.082925	0.288542	1632.323364
5719.109477	0.082928	0.288542	1707.954102
5719.110376	0.082939	0.288542	1782.516724
5720.145358	1.003458	0.302073	443.528564
5720.146342	0.526018	0.302073	961.130371
5720.147248	0.085166	0.302073	1038.290771
5720.148133	0.082764	0.302073	1111.536621
5720.149032	0.082859	0.302073	1186.026733
5720.149976	0.082925	0.302073	1264.307739
5720.150874	0.082870	0.302073	1338.724854
5720.151767	0.082826	0.302073	1412.688354
5720.152690	0.082885	0.302073	1489.190796
5720.153610	0.082826	0.302073	1565.390625
5720.154529	0.082844	0.302073	1641.524414
5720.155420	0.082855	0.302073	1715.348389
5721.209289	1.007805	0.285944	442.426483
5721.210196	0.643689	0.285944	1026.252441
5721.211084	0.087495	0.285944	1103.948120
5721.212043	0.082844	0.285944	1183.395752
5721.212948	0.082877	0.285944	1258.399658
5721.213843	0.082969	0.285944	1332.656738
5721.214759	0.082961	0.285944	1408.649414
5721.215679	0.082881	0.285944	1484.899780
5721.216592	0.082899	0.285944	1560.586670
5721.217492	0.082921	0.285944	1635.215698
5721.218423	0.082965	0.285944	1712.456177
5721.219332	0.082958	0.285944	1787.864746
5722.255329	1.022820	0.304204	460.268951
5722.256249	0.600403	0.304204	1012.639526
5722.257150	0.086206	0.304204	1090.311157
5722.258074	0.082789	0.304204	1166.808472
5722.258985	0.082969	0.304204	1242.393066
5722.259897	0.082830	0.304204	1317.933594
5722.260792	0.082885	0.304204	1392.115234
5722.261741	0.082939	0.304204	1470.824829
5722.262642	0.082892	0.304204	1545.510376
5722.263541	0.082841	0.304204	1619.984009
5722.264428	0.082899	0.304204	1693.515625
5722.265366	0.082917	0.304204	1771.292236
5723.320275	1.029580	0.288462	462.281464
5723.321221	0.574193	0.288462	1005.468140
5723.322117	0.085990	0.288462	1082.515137
5723.323066	0.082848	0.288462	1161.137817
5723.323959	0.082921	0.288462	1235.186401
5723.324849	0.082910	0.288462	1308.976440
5723.325776	0.082943	0.288462	1385.864746
5723.326678	0.082877	0.288462	1460.619995
5723.327601	0.082976	0.288462	1537.206909
5723.328491	0.082928	0.288462	1611.013184
5723.329447	0.082925	0.288462	1690.289307
5723.330347	0.082852	0.288462	1764.855713
5724.364747	1.017268	0.305308	446.580688
5724.365710	0.563522	0.305308	989.252075
5724.366609	0.085704	0.305308	1066.300293
5724.367498	0.082822	0.305308	1139.929321
5724.368447	0.082885	0.305308	1218.586670
5724.369357	0.082874	0.305308	1294.001587
5724.370260	0.082881	0.305308	1368.843018
5724.371154	0.082932	0.305308	1442.984375
5724.372088	0.082936	0.305308	1520.446411
5724.373000	0.082852	0.305308	1596.007080
5724.373896	0.082939	0.305308	1670.320801
5724.374787	0.082859	0.305308	1744.148071
5725.428215	1.054801	0.286097	499.975677
5725.429134	0.565448	0.286097	1019.622437
5725.430035	0.085525	0.286097	1096.680420
5725.430925	0.082778	0.286097	1170.353149
5725.431867	0.082914	0.286097	1248.458008
5725.432785	0.082896	0.286097	1324.556030
5725.433685	0.082961	0.286097	1399.221313
5725.434607	0.082947	0.286097	1475.698242
5725.435516	0.082983	0.286097	1551.130127
5725.436416	0.082936	0.286097	1625.772339
5725.437308	0.082921	0.286097	1699.738037
5725.438260	0.082896	0.286097	1778.654541
5726.475209	1.004725	0.303745	439.064972
5726.476133	0.622841	0.303745	1014.569702
5726.477032	0.086660	0.303745	1092.477173
5726.477972	0.082863	0.303745	1170.367920
5726.478870	0.082921	0.303745	1244.831055
5726.479766	0.082903	0.303745	1319.111938
5726.480653	0.082848	0.303745	1392.598022
5726.481596	0.082969	0.303745	1470.837524
5726.482509	0.082917	0.303745	1546.541138
5726.483407	0.082943	0.303745	1621.024048
5726.484339	0.082983	0.303745	1698.364624
5726.485248	0.082896	0.303745	1773.716675
5727.537109	1.018535	0.288264	457.322266
5727.538000	0.635669	0.288264	1023.703308
5727.538958	0.085631	0.288264	1105.737915
5727.539869	0.082833	0.288264	1181.198975
5727.540757	0.082896	0.288264	1254.810181
5727.541676	0.082958	0.288264	1331.048340
5727.542615	0.082899	0.288264	1408.890625
5727.543519	0.082852	0.288264	1483.788452
5727.544409	0.082928	0.288264	1557.594727
5727.545352	0.082939	0.288264	1635.806641
5727.546255	0.082885	0.288264	1710.651367
5727.547171	0.082943	0.288264	1786.627197
5728.585171	1.013207	0.306835	446.824219
5728.586077	0.635632	0.306835	1022.707092
5728.586965	0.087301	0.306835	1100.230347
5728.587920	0.082925	0.306835	1179.423584
5728.588818	0.082903	0.306835	1253.870361
5728.589723	0.082954	0.306835	1328.943848
5728.590611	0.082969	0.306835	1402.620117
5728.591545	0.083064	0.306835	1480.201904
5728.592455	0.082863	0.306835	1555.606812
5728.593352	0.082892	0.306835	1629.960815
5728.594279	0.082961	0.306835	1706.866089
5728.595187	0.082928	0.306835	1782.165161
5729.644510	1.022736	0.286234	459.208282
5729.645437	0.600879	0.286234	1016.223022
5729.646328	0.086382	0.286234	1093.189209
5729.647239	0.082899	0.286234	1168.710327
5729.648158	0.083013	0.286234	1244.999023
5729.649070	0.082925	0.286234	1320.626465
5729.649969	0.082950	0.286234	1395.198853
5729.650893	0.082914	0.286234	1471.811279
5729.651801	0.082947	0.286234	1547.126953
5729.652705	0.082885	0.286234	1622.054565
5729.653593	0.082961	0.286234	1695.724365
5729.654535	0.083049	0.286234	1773.956787
5730.696164	1.031851	0.305075	466.396454
5730.697068	0.619021	0.305075	1025.991455
5730.697957	0.087041	0.305075	1103.370972
5730.698910	0.082899	0.305075	1182.373901
5730.699805	0.082972	0.305075	1256.634155
5730.700696	0.082961	0.305075	1330.552734
5730.701618	0.082914	0.305075	1406.999268
5730.702523	0.082936	0.305075	1482.056152
5730.703435	0.082917	0.305075	1557.676880
5730.704332	0.082991	0.305075	1632.119507
5730.705293	0.083042	0.305075	1711.922852
5730.706203	0.082870	0.305075	1787.334473
5731.752905	1.003506	0.291265	434.518036
5731.753843	0.633915	0.291265	1029.130127
5731.754755	0.086180	0.291265	1107.726685
5731.755653	0.082808	0.291265	1182.087891
5731.756541	0.082932	0.291265	1255.731567
5731.757494	0.082972	0.291265	1334.804321
5731.758398	0.082859	0.291265	1409.708740
5731.759290	0.082896	0.291265	1483.651489
5731.760183	0.082928	0.291265	1557.706543
5731.761131	0.082961	0.291265	1636.354004
5731.762040	0.082961	0.291265	1711.765991
5731.762939	0.082936	0.291265	1786.325317
5732.807176	1.040936	0.307286	521.509033
5732.808100	0.533188	0.307286	1014.175171
5732.808994	0.085459	0.307286	1090.575562
5732.809879	0.082917	0.307286	1163.957520
5732.810823	0.082958	0.307286	1242.269653
5732.811731	0.082896	0.307286	1317.538818
5732.812641	0.083013	0.307286	1393.080322
5732.813537	0.082954	0.307286	1467.407227
5732.814480	0.083016	0.307286	1545.691650
5732.815384	0.082906	0.307286	1620.639160
5732.816283	0.082899	0.307286	1695.165527
5732.817232	0.083005	0.307286	1773.937622
5733.859786	1.007831	0.286391	442.437683
5733.860774	0.526322	0.286391	962.443848
5733.861683	0.085247	0.286391	1039.932983
5733.862578	0.082954	0.286391	1114.176880
5733.863492	0.082969	0.286391	1190.010254
5733.864413	0.082958	0.286391	1266.414307
5733.865320	0.083016	0.286391	1341.710205
5733.866218	0.082976	0.286391	1416.222656
5733.867137	0.083068	0.286391	1492.561768
5733.868047	0.083020	0.286391	1568.109985
5733.868954	0.082987	0.286391	1643.379272
5733.869875	0.082969	0.286391	1719.793457
5734.919118	1.001975	0.308023	439.867065
5734.920009	0.655353	0.308023	1023.786377
5734.920961	0.085961	0.308023	1105.620972
5734.921879	0.082837	0.308023	1181.665283
5734.922775	0.082961	0.308023	1255.998779
5734.923663	0.082899	0.308023	1329.613281
5734.924618	0.082958	0.308023	1408.837891
5734.925529	0.082826	0.308023	1484.292358
5734.926423	0.082874	0.308023	1558.381348
5734.927352	0.082972	0.308023	1635.462769
5734.928264	0.082877	0.308023	1711.046753
5734.929158	0.082822	0.308023	1785.089844
5735.967205	1.040306	0.298561	475.420044
5735.968129	0.587194	0.298561	1017.986938
5735.969024	0.085990	0.298561	1094.947998
5735.969918	0.082826	0.298561	1168.994385
5735.970852	0.082954	0.298561	1246.473511
5735.971759	0.082914	0.298561	1321.676392
5735.972653	0.082914	0.298561	1395.801392
5735.973600	0.082910	0.298561	1474.317261
5735.974507	0.082939	0.298561	1549.543335
5735.975418	0.082914	0.298561	1625.077881
5735.976310	0.082917	0.298561	1699.040283
5735.977247	0.082994	0.298561	1776.806030
5737.030148	1.048491	0.306807	522.148621
5737.031070	0.524681	0.306807	1005.904907
5737.031973	0.085170	0.306807	1082.813110
5737.032859	0.082841	0.306807	1156.209839
5737.033801	0.082980	0.306807	1234.376709
5737.034710	0.082896	0.306807	1309.728760
5737.035600	0.082888	0.306807	1383.499268
5737.036508	0.082936	0.306807	1458.804932
5737.037433	0.082987	0.306807	1535.567993
5737.038337	0.082848	0.306807	1610.462524
5737.039227	0.082950	0.306807	1684.288452
5737.040148	0.082936	0.306807	1760.672363
5738.074588	1.028427	0.292736	467.934082
5738.075488	0.623892	0.292736	1029.436523
5738.076408	0.087081	0.292736	1109.551270
5738.077340	0.082936	0.292736	1186.847412
5738.078254	0.082866	0.292736	1262.587158
5738.079156	0.082892	0.292736	1337.355591
5738.080101	0.082969	0.292736	1415.761108
5738.081002	0.082903	0.292736	1490.456543
5738.081898	0.082932	0.292736	1564.763672
5738.082785	0.082980	0.292736	1638.366699
5738.083717	0.082991	0.292736	1715.714111
5738.084628	0.082987	0.292736	1791.315308
5739.141597	1.027101	0.300172	469.385071
5739.142497	0.620281	0.300172	1027.637817
5739.143415	0.086843	0.300172	1107.359985
5739.144339	0.082932	0.300172	1183.989258
5739.145248	0.082870	0.300172	1259.317993
5739.146137	0.082932	0.300172	1333.044678
5739.147065	0.082925	0.300172	1409.998901
5739.147979	0.082866	0.300172	1485.738647
5739.148882	0.082855	0.300172	1560.556885
5739.149768	0.082888	0.300172	1633.995850
5739.150718	0.082961	0.300172	1712.809204
5739.151614	0.082848	0.300172	1787.040894
5740.181967	1.005516	0.299274	440.416199
5740.182897	0.631077	0.299274	1027.317383
5740.183816	0.086327	0.299274	1106.651855
5740.184715	0.082925	0.299274	1181.201294
5740.185615	0.082987	0.299274	1255.889648
5740.186541	0.083035	0.299274	1332.779785
5740.187445	0.082950	0.299274	1407.766968
5740.188350	0.082943	0.299274	1482.830444
5740.189241	0.082917	0.299274	1556.709961
5740.190194	0.082947	0.299274	1635.758301
5740.191094	0.082903	0.299274	1710.370850
5740.191997	0.082925	0.299274	1785.251953
5741.253124	1.071423	0.303262	531.425964
5741.254053	0.518492	0.303262	1013.105408
5741.254958	0.085100	0.303262	1090.120972
5741.255847	0.082855	0.303262	1163.779297
5741.256799	0.083016	0.303262	1242.810913
5741.257711	0.082932	0.303262	1318.445068
5741.258604	0.082958	0.303262	1392.526367
5741.259533	0.083060	0.303262	1469.689331
5741.260434	0.082980	0.303262	1544.454102
5741.261342	0.082972	0.303262	1619.793091
5741.262239	0.083046	0.303262	1694.285034
5741.263176	0.082998	0.303262	1772.054199
5742.290385	1.013005	0.295910	447.748383
5742.291293	0.635475	0.295910	1024.759521
5742.292182	0.087349	0.295910	1102.412476
5742.293144	0.082910	0.295910	1182.171997
5742.294048	0.083013	0.295910	1257.215454
5742.294951	0.082917	0.295910	1332.089966
5742.295835	0.082855	0.295910	1405.333984
5742.296768	0.082943	0.295910	1482.719971
5742.297673	0.082874	0.295910	1557.720459
5742.298572	0.082961	0.295910	1632.302734
5742.299504	0.082885	0.295910	1709.551147
5742.300412	0.082910	0.295910	1784.833618
5743.361997	1.007091	0.297896	442.112976
5743.362891	0.638947	0.297896	1013.331177
5743.363843	0.086078	0.297896	1095.277344
5743.364741	0.082797	0.297896	1169.628662
5743.365629	0.082965	0.297896	1243.301636
5743.366578	0.082994	0.297896	1322.063354
5743.367486	0.082939	0.297896	1397.372314
5743.368391	0.082932	0.297896	1472.425903
5743.369327	0.082921	0.297896	1550.040039
5743.370236	0.083035	0.297896	1625.518555
5743.371136	0.082896	0.297896	1700.124512
5743.372021	0.082969	0.297896	1773.551880
5744.399835	1.021168	0.299080	453.398682
5744.400762	0.599421	0.299080	1009.062317
5744.401663	0.086195	0.299080	1086.724121
5744.402599	0.082943	0.299080	1164.358887
5744.403503	0.082947	0.299080	1239.342773
5744.404401	0.082874	0.299080	1313.763184
5744.405289	0.082881	0.299080	1387.361328
5744.406241	0.082994	0.299080	1466.371948
5744.407141	0.082969	0.299080	1541.043823
5744.408043	0.082976	0.299080	1615.888184
5744.408931	0.082936	0.299080	1689.535156
5744.409860	0.082972	0.299080	1766.616577
5745.470428	1.036014	0.297856	472.422577
5745.471339	0.602336	0.297856	1021.151001
5745.472226	0.086719	0.297856	1098.070557
5745.473196	0.083046	0.297856	1178.624878
5745.474102	0.082906	0.297856	1253.738159
5745.474997	0.082855	0.297856	1327.893555
5745.475923	0.082932	0.297856	1404.688721
5745.476827	0.082917	0.297856	1479.646118
5745.477723	0.082877	0.297856	1553.904053
5745.478606	0.082848	0.297856	1627.058716
5745.479544	0.082983	0.297856	1704.897095
5745.480447	0.082950	0.297856	1779.801392
5746.510806	1.021776	0.301590	455.712128
5746.511710	0.635757	0.301590	1030.436279
5746.512600	0.087264	0.301590	1108.101562
5746.513560	0.082811	0.301590	1187.600342
5746.514468	0.082837	0.301590	1262.816284
5746.515388	0.082852	0.301590	1339.039673
5746.516279	0.082841	0.301590	1412.850586
5746.517226	0.082888	0.301590	1491.345703
5746.518124	0.082848	0.301590	1565.743164
5746.519011	0.082921	0.301590	1639.294189
5746.519949	0.083031	0.301590	1717.177246
5746.520854	0.082892	0.301590	1792.194336
5747.579357	1.022622	0.296563	454.044159
5747.580281	0.599136	0.296563	1007.645630
5747.581192	0.086034	0.296563	1086.022583
5747.582102	0.082928	0.296563	1161.487549
5747.583032	0.082980	0.296563	1238.658691
5747.583938	0.082928	0.296563	1313.791870
5747.584829	0.082925	0.296563	1387.677856
5747.585762	0.082965	0.296563	1465.084229
5747.586652	0.083009	0.296563	1538.962280
5747.587554	0.082958	0.296563	1613.790161
5747.588448	0.082914	0.296563	1687.915161
5747.589384	0.082969	0.296563	1765.573975
5748.620250	1.016070	0.303234	452.151367
5748.621147	0.636720	0.303234	1023.289185
5748.622088	0.087155	0.303234	1105.301636
5748.623007	0.082925	0.303234	1181.509521
5748.623914	0.082870	0.303234	1256.672485
5748.624813	0.082881	0.303234	1331.182373
5748.625742	0.082958	0.303234	1408.250122
5748.626644	0.082928	0.303234	1483.051636
5748.627556	0.082921	0.303234	1558.675659
5748.628452	0.082859	0.303234	1632.917236
5748.629394	0.082969	0.303234	1711.073853
5748.630301	0.082896	0.303234	1786.260010
5749.688270	1.010878	0.302819	446.807892
5749.689163	0.641147	0.302819	1019.352539
5749.690130	0.085704	0.302819	1102.228638
5749.691025	0.082742	0.302819	1176.282471
5749.691915	0.082863	0.302819	1250.030151
5749.692835	0.082859	0.302819	1326.260376
5749.693757	0.082877	0.302819	1402.673096
5749.694660	0.082833	0.302819	1477.471558
5749.695553	0.082837	0.302819	1551.444946
5749.696500	0.082939	0.302819	1629.988647
5749.697416	0.082874	0.302819	1705.900757
5749.698316	0.082932	0.302819	1780.539673
5750.730706	1.012189	0.305457	446.375244
5750.731601	0.633604	0.305457	1013.450378
5750.732552	0.086005	0.305457	1095.240845
5750.733464	0.082866	0.305457	1170.814819
5750.734353	0.082819	0.305457	1244.440552
5750.735294	0.082972	0.305457	1322.517578
5750.736200	0.082947	0.305457	1397.667358
5750.737106	0.082950	0.305457	1472.820435
5750.737995	0.082980	0.305457	1546.589478
5750.738930	0.082972	0.305457	1624.168701
5750.739829	0.082950	0.305457	1698.741089
5750.740739	0.082925	0.305457	1774.202637
5751.796185	1.018612	0.300241	453.282349
5751.797093	0.625781	0.300241	1021.491699
5751.797978	0.087034	0.300241	1098.516479
5751.798922	0.082947	0.300241	1176.818237
5751.799832	0.082896	0.300241	1252.253174
5751.800736	0.082885	0.300241	1327.180786
5751.801627	0.082874	0.300241	1401.021118
5751.802570	0.083038	0.300241	1479.326294
5751.803479	0.082885	0.300241	1554.668335
5751.804377	0.082866	0.300241	1629.082153
5751.805315	0.082885	0.300241	1706.827881
5751.806214	0.082837	0.300241	1781.298218
5752.840656	1.010131	0.304813	446.477753
5752.841557	0.637994	0.304813	1021.310669
5752.842489	0.086287	0.304813	1101.729858
5752.843404	0.082852	0.304813	1177.539062
5752.844300	0.082976	0.304813	1251.885620
5752.845233	0.083002	0.304813	1329.326172
5752.846143	0.082987	0.304813	1404.844360
5752.847047	0.082987	0.304813	1479.864624
5752.847941	0.082991	0.304813	1554.058350
5752.848879	0.083053	0.304813	1631.962036
5752.849786	0.082980	0.304813	1707.224609
5752.850680	0.082932	0.304813	1781.365967
5753.905609	1.019041	0.305103	448.377869
5753.906598	0.518979	0.305103	961.648560
5753.907505	0.084983	0.305103	1038.728027
5753.908395	0.082910	0.305103	1112.518066
5753.909335	0.083002	0.305103	1190.539673
5753.910236	0.082877	0.305103	1265.212036
5753.911125	0.082841	0.305103	1338.857300
5753.912063	0.082954	0.305103	1416.668213
5753.912974	0.082888	0.305103	1492.179321
5753.913880	0.082914	0.305103	1567.299194
5753.914772	0.082877	0.305103	1641.225708
5753.915720	0.083009	0.305103	1719.918213
5754.950601	1.002246	0.307318	435.977081
5754.951557	0.611005	0.307318	1020.097412
5754.952469	0.085496	0.307318	1098.069336
5754.953368	0.082782	0.307318	1172.490356
5754.954258	0.082903	0.307318	1246.273926
5754.955191	0.082936	0.307318	1323.653076
5754.956097	0.082917	0.307318	1398.776367
5754.957007	0.082954	0.307318	1474.264648
5754.957896	0.083009	0.307318	1548.059692
5754.958844	0.082925	0.307318	1626.672363
5754.959750	0.082881	0.307318	1701.762451
5754.960643	0.082965	0.307318	1775.850220
5756.014030	1.006520	0.305163	440.855682
5756.014989	0.571220	0.305163	988.655151
5756.015901	0.085503	0.305163	1066.633789
5756.016808	0.082892	0.305163	1141.816650
5756.017698	0.082874	0.305163	1215.574097
5756.018639	0.082936	0.305163	1293.616699
5756.019542	0.082906	0.305163	1368.481201
5756.020435	0.082866	0.305163	1442.480713
5756.021364	0.082928	0.305163	1519.521240
5756.022278	0.082925	0.305163	1595.314453
5756.023181	0.082885	0.305163	1670.159180
5756.024085	0.082947	0.305163	1745.143066
5757.060053	1.009860	0.306609	449.387512
5757.060954	0.639034	0.306609	1025.157471
5757.061844	0.087429	0.306609	1102.969482
5757.062804	0.082771	0.306609	1182.429687
5757.063703	0.082866	0.306609	1256.926392
5757.064623	0.082906	0.306609	1333.200317
5757.065522	0.082943	0.306609	1407.766113
5757.066460	0.082885	0.306609	1485.511841
5757.067380	0.082833	0.306609	1561.718384
5757.068278	0.082896	0.306609	1636.158569
5757.069229	0.082888	0.306609	1714.985229
5757.070138	0.082855	0.306609	1790.300659
5758.123469	1.008428	0.302090	440.682922
5758.124392	0.627543	0.302090	1019.904846
5758.125331	0.085624	0.302090	1100.305542
5758.126256	0.082870	0.302090	1176.960205
5758.127158	0.082866	0.302090	1251.705566
5758.128090	0.082947	0.302090	1329.011963
5758.129001	0.082859	0.302090	1404.496460
5758.129903	0.082954	0.302090	1479.321045
5758.130788	0.082950	0.302090	1552.732178
5758.131735	0.082888	0.302090	1631.227295
5758.132643	0.082917	0.302090	1706.516357
5758.133535	0.082888	0.302090	1780.452637
5759.168992	1.028525	0.305264	469.007568
5759.169896	0.609305	0.305264	1019.819641
5759.170787	0.086719	0.305264	1097.086060
5759.171738	0.082969	0.305264	1175.989380
5759.172656	0.082958	0.305264	1252.144653
5759.173555	0.082972	0.305264	1326.736816
5759.174478	0.083005	0.305264	1403.350830
5759.175388	0.083042	0.305264	1478.919067
5759.176285	0.082965	0.305264	1553.338745
5759.177173	0.083002	0.305264	1627.044312
5759.178124	0.083046	0.305264	1706.020752
5759.179023	0.083002	0.305264	1780.639282
5760.232915	1.011174	0.301409	447.950226
5760.233812	0.639840	0.301409	1021.886719
5760.234776	0.085770	0.301409	1104.569214
5760.235691	0.082906	0.301409	1180.428711
5760.236579	0.082954	0.301409	1254.091919
5760.237484	0.082917	0.301409	1329.132202
5760.238421	0.082998	0.301409	1406.901367
5760.239331	0.082906	0.301409	1482.346313
5760.240227	0.082925	0.301409	1556.646973
5760.241149	0.083009	0.301409	1633.181274
5760.242045	0.083038	0.301409	1707.583618
5760.242946	0.082921	0.301409	1782.295532
5761.278470	1.038413	0.306331	519.206543
5761.279397	0.538019	0.306331	1017.949951
5761.280327	0.084924	0.306331	1096.929565
5761.281212	0.082855	0.306331	1170.256470
5761.282162	0.082961	0.306331	1249.069824
5761.283057	0.082950	0.306331	1323.310425
5761.283972	0.082925	0.306331	1399.186646
5761.284867	0.082980	0.306331	1473.453491
5761.285829	0.082910	0.306331	1553.213013
5761.286728	0.082870	0.306331	1627.713013
5761.287618	0.082994	0.306331	1701.578003
5761.288553	0.082936	0.306331	1779.122925
5762.342868	1.009340	0.305199	449.156158
5762.343757	0.642147	0.305199	1020.025024
5762.344692	0.086385	0.305199	1100.795410
5762.345602	0.082950	0.305199	1176.280273
5762.346502	0.082950	0.305199	1250.935669
5762.347434	0.082939	0.305199	1328.235229
5762.348347	0.083002	0.305199	1404.015747
5762.349245	0.082925	0.305199	1478.482178
5762.350136	0.082980	0.305199	1552.417114
5762.351082	0.082983	0.305199	1630.919434
5762.351983	0.083042	0.305199	1705.740234
5762.352882	0.082954	0.305199	1780.315918
5763.386828	1.008303	0.308023	444.661682
5763.387809	0.535133	0.308023	969.627197
5763.388721	0.085151	0.308023	1047.285278
5763.389618	0.082928	0.308023	1121.672119
5763.390525	0.082932	0.308023	1196.891602
5763.391448	0.082936	0.308023	1273.441284
5763.392358	0.082917	0.308023	1348.896240
5763.393249	0.082848	0.308023	1422.713745
5763.394181	0.082961	0.308023	1500.033813
5763.395086	0.082950	0.308023	1575.104004
5763.395987	0.083020	0.308023	1649.905029
5763.396878	0.082936	0.308023	1723.800781
5764.453329	1.014335	0.304934	451.378937
5764.454313	0.520485	0.304934	963.535767
5764.455216	0.085100	0.304934	1040.381104
5764.456117	0.082866	0.304934	1115.043579
5764.457006	0.082877	0.304934	1188.721436
5764.457956	0.083038	0.304934	1267.607910
5764.458861	0.082866	0.304934	1342.601807
5764.459755	0.082841	0.304934	1416.661255
5764.460678	0.082921	0.304934	1493.197510
5764.461583	0.082932	0.304934	1568.251099
5764.462482	0.082870	0.304934	1642.751099
5764.463370	0.082903	0.304934	1716.368774
5765.495776	1.022487	0.309538	462.163940
5765.496687	0.608449	0.309538	1016.460510
5765.497580	0.086686	0.309538	1093.870972
5765.498541	0.082925	0.309538	1173.561768
5765.499449	0.082925	0.309538	1248.857544
5765.500340	0.082928	0.309538	1322.746826
5765.501267	0.083016	0.309538	1399.703003
5765.502189	0.082932	0.309538	1476.166382
5765.503095	0.082961	0.309538	1551.329468
5765.503987	0.082950	0.309538	1625.321289
5765.504916	0.082888	0.309538	1702.324463
5765.505834	0.082994	0.309538	1778.513306
5766.563844	1.049352	0.306916	523.626526
5766.564769	0.519371	0.306916	1004.045044
5766.565680	0.084998	0.306916	1081.477783
5766.566569	0.082874	0.306916	1155.152344
5766.567522	0.082983	0.306916	1234.235474
5766.568426	0.082965	0.306916	1309.235962
5766.569320	0.083009	0.306916	1383.446045
5766.570237	0.082932	0.306916	1459.494751
5766.571152	0.082983	0.306916	1535.424561
5766.572054	0.082888	0.306916	1610.189697
5766.572951	0.082961	0.306916	1684.606079
5766.573880	0.082921	0.306916	1761.639771
5767.603735	1.062169	0.306412	547.017151
5767.604658	0.507825	0.306412	1015.739380
5767.605555	0.085038	0.306412	1092.018311
5767.606438	0.082852	0.306412	1165.176270
5767.607372	0.082928	0.306412	1242.631470
5767.608275	0.082928	0.306412	1317.515869
5767.609178	0.082885	0.306412	1392.360596
5767.610080	0.082896	0.306412	1467.132324
5767.611002	0.082943	0.306412	1543.605835
5767.611904	0.082866	0.306412	1618.351196
5767.612793	0.082863	0.306412	1692.015991
5767.613734	0.082932	0.306412	1770.055176
5768.673222	1.015576	0.303765	443.806763
5768.674201	0.549895	0.303765	982.153931
5768.675106	0.085367	0.303765	1059.411499
5768.676001	0.082917	0.303765	1133.622681
5768.676924	0.082972	0.303765	1210.206177
5768.677831	0.082954	0.303765	1285.445557
5768.678729	0.082925	0.303765	1359.911987
5768.679622	0.082914	0.303765	1433.953979
5768.680578	0.083016	0.303765	1513.317627
5768.681477	0.082969	0.303765	1587.906494
5768.682377	0.082928	0.303765	1662.542114
5768.683264	0.082921	0.303765	1736.093140
5769.712587	1.002979	0.311564	439.304596
5769.713534	0.585883	0.311564	994.135376
5769.714452	0.085463	0.311564	1072.590088
5769.715354	0.082874	0.311564	1147.342041
5769.716242	0.082928	0.311564	1220.982544
5769.717186	0.082921	0.311564	1299.260132
5769.718093	0.082983	0.311564	1374.526123
5769.718991	0.082881	0.311564	1448.953125
5769.719903	0.082885	0.311564	1524.543823
5769.720836	0.082987	0.311564	1601.970703
5769.721738	0.082844	0.311564	1676.696167
5769.722628	0.082958	0.311564	1750.528564
5770.783733	1.027233	0.309365	495.126129
5770.784666	0.541750	0.309365	1000.579346
5770.785569	0.085375	0.309365	1077.672729
5770.786458	0.082837	0.309365	1151.314697
5770.787417	0.082936	0.309365	1230.850098
5770.788325	0.082837	0.309365	1306.066040
5770.789216	0.082841	0.309365	1379.876953
5770.790105	0.082943	0.309365	1453.613403
5770.791046	0.082939	0.309365	1531.659424
5770.791950	0.082833	0.309365	1606.540649
5770.792841	0.082885	0.309365	1680.390747
5770.793779	0.082870	0.309365	1758.122681
5771.822040	1.023248	0.308362	456.368744
5771.822933	0.621544	0.308362	1011.407715
5771.823883	0.085884	0.308362	1092.997314
5771.824790	0.082888	0.308362	1168.176880
5771.825681	0.082947	0.308362	1242.082520
5771.826610	0.083002	0.308362	1319.191162
5771.827519	0.082947	0.308362	1394.589844
5771.828426	0.082870	0.308362	1469.752808
5771.829317	0.082863	0.308362	1543.583374
5771.830268	0.082950	0.308362	1622.469238
5771.831171	0.082976	0.308362	1697.396606
5771.832075	0.082925	0.308362	1772.360596
5772.893172	1.042225	0.308317	504.437073
5772.894095	0.543713	0.308317	1006.284485
5772.895004	0.085353	0.308317	1083.870117
5772.895891	0.082954	0.308317	1157.450439
5772.896846	0.082983	0.308317	1236.699585
5772.897748	0.082932	0.308317	1311.504395
5772.898654	0.082866	0.308317	1386.581177
5772.899552	0.082947	0.308317	1461.067383
5772.900480	0.082932	0.308317	1538.028442
5772.901390	0.082914	0.308317	1613.479980
5772.902278	0.082892	0.308317	1687.087891
5772.903215	0.082961	0.308317	1764.822754
5773.931978	1.005293	0.307169	439.312988
5773.932925	0.622339	0.307169	1028.667969
5773.933832	0.086060	0.307169	1106.723999
5773.934738	0.082848	0.307169	1181.784180
5773.935626	0.082939	0.307169	1255.434448
5773.936558	0.082958	0.307169	1332.751099
5773.937459	0.082965	0.307169	1407.502686
5773.938363	0.082928	0.307169	1482.469971
5773.939251	0.082888	0.307169	1556.074707
5773.940202	0.083016	0.307169	1635.023315
5773.941107	0.082906	0.307169	1710.053711
5773.941999	0.082917	0.307169	1784.016113
5775.002069	1.015096	0.312885	453.748108
5775.002969	0.633563	0.312885	1023.955017
5775.003916	0.086484	0.312885	1105.855713
5775.004828	0.082852	0.312885	1181.416382
5775.005719	0.082961	0.312885	1255.334961
5775.006650	0.082969	0.312885	1332.578857
5775.007554	0.082896	0.312885	1407.516357
5775.008446	0.082921	0.312885	1481.482056
5775.009328	0.082903	0.312885	1554.602295
5775.010266	0.082921	0.312885	1632.382324
5775.011179	0.082932	0.312885	1708.099365
5775.012082	0.082972	0.312885	1783.023437
5776.042950	1.017821	0.307145	444.787811
5776.043930	0.542164	0.307145	976.108765
5776.044822	0.085499	0.307145	1052.374146
5776.045707	0.082874	0.307145	1125.717163
5776.046653	0.082980	0.307145	1204.215942
5776.047561	0.082903	0.307145	1279.491699
5776.048467	0.082888	0.307145	1354.588379
5776.049408	0.083005	0.307145	1432.696411
5776.050318	0.083068	0.307145	1508.287964
5776.051219	0.082987	0.307145	1583.059326
5776.052108	0.082892	0.307145	1656.750122
5776.053054	0.082987	0.307145	1735.255859
5777.110478	1.010383	0.315838	444.568634
5777.111378	0.645150	0.315838	1025.203857
5777.112269	0.087448	0.315838	1103.119629
5777.113221	0.082983	0.315838	1182.119873
5777.114133	0.082848	0.315838	1257.677124
5777.115037	0.082906	0.315838	1332.624634
5777.115967	0.082947	0.315838	1409.765137
5777.116870	0.082972	0.315838	1484.689209
5777.117766	0.082866	0.315838	1558.937378
5777.118652	0.082833	0.315838	1632.327637
5777.119594	0.082998	0.315838	1710.511841
5777.120494	0.082910	0.315838	1785.130981
5778.153437	1.026859	0.304325	460.032898
5778.154345	0.621083	0.304325	1023.976074
5778.155230	0.087096	0.304325	1101.056030
5778.156188	0.082932	0.304325	1180.505005
5778.157087	0.082958	0.304325	1255.083984
5778.157984	0.082943	0.304325	1329.484009
5778.158871	0.082947	0.304325	1403.057861
5778.159820	0.083013	0.304325	1481.836914
5778.160729	0.082932	0.304325	1557.222168
5778.161634	0.082939	0.304325	1632.282349
5778.162561	0.082943	0.304325	1709.170654
5778.163461	0.083027	0.304325	1783.895264
5779.216859	1.025486	0.315004	459.417664
5779.217770	0.618109	0.315004	1022.515076
5779.218658	0.086909	0.315004	1099.690430
5779.219600	0.082866	0.315004	1177.750366
5779.220513	0.082932	0.315004	1253.467407
5779.221412	0.082921	0.315004	1328.013550
5779.222334	0.082928	0.315004	1404.473633
5779.223250	0.082976	0.315004	1480.479736
5779.224162	0.082983	0.315004	1556.160645
5779.225061	0.082969	0.315004	1630.749512
5779.226006	0.083031	0.315004	1709.213867
5779.226911	0.082939	0.315004	1784.274048
5780.264912	1.019099	0.305864	454.518219
5780.265806	0.625935	0.305864	1014.104126
5780.266782	0.085239	0.305864	1097.297607
5780.267693	0.082833	0.305864	1172.758667
5780.268586	0.082969	0.305864	1246.849731
5780.269514	0.083009	0.305864	1323.882080
5780.270419	0.082969	0.305864	1398.968750
5780.271313	0.082965	0.305864	1473.139526
5780.272198	0.082939	0.305864	1546.540894
5780.273126	0.082969	0.305864	1623.535889
5780.274040	0.082947	0.305864	1699.349243
5780.274945	0.082939	0.305864	1774.409424
5781.325259	1.019088	0.320539	450.436951
5781.326243	0.530204	0.320539	972.157593
5781.327150	0.085254	0.320539	1049.482910
5781.328043	0.082874	0.320539	1123.489014
5781.328981	0.082965	0.320539	1201.310303
5781.329881	0.082976	0.320539	1275.988770
5781.330774	0.082928	0.320539	1350.043945
5781.331663	0.082925	0.320539	1423.764160
5781.332604	0.082888	0.320539	1501.761963
5781.333508	0.082954	0.320539	1576.752441
5781.334410	0.082881	0.320539	1651.510986
5781.335299	0.082906	0.320539	1725.214844
5782.375900	1.020157	0.300873	451.929749
5782.376821	0.614191	0.300873	1017.599304
5782.377724	0.086444	0.300873	1095.658325
5782.378634	0.082921	0.300873	1171.116577
5782.379565	0.082991	0.300873	1248.380981
5782.380472	0.082914	0.300873	1323.583862
5782.381366	0.082954	0.300873	1397.744873
5782.382291	0.083038	0.300873	1474.555298
5782.383193	0.082896	0.300873	1549.327026
5782.384100	0.082921	0.300873	1624.536499
5782.384988	0.082958	0.300873	1698.203003
5782.385941	0.082991	0.300873	1777.293213
5783.432699	1.063854	0.322412	514.905212
5783.433635	0.531500	0.322412	1012.389465
5783.434538	0.085133	0.322412	1089.264648
5783.435429	0.082877	0.322412	1163.108276
5783.436376	0.082961	0.322412	1241.672729
5783.437280	0.082899	0.322412	1316.613525
5783.438171	0.082892	0.322412	1390.470215
5783.439110	0.082833	0.322412	1468.250610
5783.440017	0.082903	0.322412	1543.443481
5783.440919	0.082899	0.322412	1618.218506
5783.441804	0.082888	0.322412	1691.574585
5783.442749	0.082939	0.322412	1769.952393
5784.487882	1.005842	0.304869	440.558899
5784.488830	0.594664	0.304869	1004.300659
5784.489746	0.086118	0.304869	1083.184937
5784.490647	0.082870	0.304869	1157.850708
5784.491532	0.082925	0.304869	1231.239136
5784.492478	0.083038	0.304869	1309.793457
5784.493379	0.082939	0.304869	1384.521851
5784.494280	0.082987	0.304869	1459.293213
5784.495212	0.082936	0.304869	1536.589355
5784.496123	0.082972	0.304869	1612.177246
5784.497022	0.082866	0.304869	1686.673950
5784.497908	0.082936	0.304869	1760.155029
5785.540055	1.019681	0.319709	461.915649
5785.540951	0.635944	0.319709	1031.721191
5785.541896	0.086957	0.319709	1113.895386
5785.542806	0.082899	0.319709	1189.333618
5785.543709	0.082881	0.319709	1264.175049
5785.544597	0.082885	0.319709	1337.776489
5785.545545	0.082998	0.319709	1416.458618
5785.546449	0.082928	0.319709	1491.425903
5785.547352	0.082899	0.319709	1566.283813
5785.548240	0.082899	0.319709	1639.898315
5785.549194	0.082972	0.319709	1719.053955
5785.550103	0.082866	0.319709	1794.379395
5786.598352	1.009644	0.302307	442.223877
5786.599291	0.618611	0.302307	1023.099426
5786.600203	0.085807	0.302307	1101.355347
5786.601113	0.082885	0.302307	1176.780273
5786.602011	0.082947	0.302307	1251.266479
5786.602968	0.082994	0.302307	1330.692139
5786.603873	0.082947	0.302307	1405.759033
5786.604796	0.082921	0.302307	1482.295288
5786.605684	0.083013	0.302307	1556.010498
5786.606630	0.082980	0.302307	1634.509277
5786.607524	0.082983	0.302307	1708.696411
5786.608415	0.082969	0.302307	1782.621582
5787.648520	1.077759	0.325309	537.801636
5787.649443	0.530083	0.325309	1027.068237
5787.650345	0.085386	0.325309	1104.086182
5787.651231	0.082793	0.325309	1177.440796
5787.652173	0.082961	0.325309	1255.590454
5787.653083	0.082932	0.325309	1331.058716
5787.653973	0.082943	0.325309	1404.878052
5787.654904	0.082965	0.325309	1482.118530
5787.655808	0.083027	0.325309	1557.175293
5787.656706	0.082939	0.325309	1631.654907
5787.657601	0.082980	0.325309	1705.921753
5787.658545	0.082947	0.325309	1784.223511
5788.708829	1.024992	0.301364	461.246185
5788.709751	0.602043	0.301364	1016.330200
5788.710640	0.086400	0.301364	1093.139893
5788.711569	0.082863	0.301364	1170.119141
5788.712472	0.082987	0.301364	1245.056396
5788.713371	0.082899	0.301364	1319.582764
5788.714260	0.082939	0.301364	1393.315918
5788.715218	0.082943	0.301364	1472.775391
5788.716126	0.082958	0.301364	1548.101074
5788.717032	0.082888	0.301364	1623.197754
5788.717919	0.082958	0.301364	1696.781250
5788.718859	0.082965	0.301364	1774.768433
5789.757391	1.008285	0.321031	440.620514
5789.758359	0.575962	0.321031	998.151611
5789.759258	0.085880	0.321031	1075.357788
5789.760158	0.082892	0.321031	1149.960449
5789.761043	0.082899	0.321031	1223.326172
5789.761967	0.082972	0.321031	1299.992676
5789.762876	0.082888	0.321031	1375.338013
5789.763770	0.082906	0.321031	1449.456421
5789.764693	0.082939	0.321031	1526.009521
5789.765602	0.082972	0.321031	1601.431396
5789.766505	0.082917	0.321031	1676.305908
5789.767394	0.082892	0.321031	1749.996704
5790.819288	1.014393	0.304502	445.318665
5790.820203	0.625287	0.304502	1017.456177
5790.821094	0.087026	0.304502	1094.996704
5790.821998	0.082844	0.304502	1169.887939
5790.822935	0.082936	0.304502	1247.598755
5790.823831	0.082870	0.304502	1321.850098
5790.824719	0.082943	0.304502	1395.503540
5790.825644	0.082932	0.304502	1472.215820
5790.826556	0.082874	0.304502	1547.796509
5790.827449	0.082903	0.304502	1621.828735
5790.828379	0.083024	0.304502	1699.040771
5790.829287	0.082892	0.304502	1774.306519
5791.865818	1.026398	0.325063	460.852570
5791.866731	0.614989	0.325063	1022.337524
5791.867623	0.086975	0.325063	1099.919312
5791.868582	0.082928	0.325063	1179.447754
5791.869493	0.082932	0.325063	1254.998901
5791.870388	0.082939	0.325063	1329.229736
5791.871318	0.083002	0.325063	1406.421387
5791.872218	0.082987	0.325063	1481.109741
5791.873123	0.082954	0.325063	1556.183228
5791.874015	0.082925	0.325063	1630.152100
5791.874952	0.082976	0.325063	1707.900635
5791.875857	0.082969	0.325063	1782.987305
5792.928234	1.039446	0.303640	477.105652
5792.929157	0.586344	0.303640	1018.301147
5792.930052	0.086287	0.303640	1095.527710
5792.930970	0.082881	0.303640	1171.612305
5792.931890	0.082983	0.303640	1247.957031
5792.932790	0.082936	0.303640	1322.599243
5792.933686	0.082954	0.303640	1396.926147
5792.934616	0.083038	0.303640	1474.151855
5792.935519	0.082943	0.303640	1549.049438
5792.936419	0.083002	0.303640	1623.750977
5792.937307	0.082987	0.303640	1697.443481
5792.938255	0.082991	0.303640	1776.118652
5793.974767	1.051395	0.322936	491.001617
5793.975699	0.560812	0.322936	1013.678223
5793.976587	0.085854	0.322936	1089.916992
5793.977501	0.082859	0.322936	1165.650024
5793.978413	0.082976	0.322936	1241.324219
5793.979322	0.082837	0.322936	1316.622925
5793.980219	0.082928	0.322936	1391.009766
5793.981153	0.082983	0.322936	1468.516235
5793.982062	0.082991	0.322936	1543.954834
5793.982965	0.082939	0.322936	1618.849121
5793.983854	0.082991	0.322936	1692.627930
5793.984808	0.083027	0.322936	1771.836060
5795.038232	1.090884	0.304925	561.805115
5795.039165	0.501061	0.304925	1029.294800
5795.040062	0.084771	0.304925	1105.333984
5795.040946	0.082903	0.304925	1178.620117
5795.041875	0.082896	0.304925	1255.630005
5795.042780	0.082903	0.304925	1330.657104
5795.043672	0.082969	0.304925	1404.665283
5795.044617	0.082928	0.304925	1483.032715
5795.045530	0.082870	0.304925	1558.692871
5795.046435	0.082896	0.304925	1633.713257
5795.047336	0.082965	0.304925	1708.464844
5795.048265	0.082972	0.304925	1785.546265
5796.084223	1.049081	0.324358	516.147705
5796.085153	0.517826	0.324358	997.725830
5796.086058	0.085001	0.324358	1074.651978
5796.086946	0.082826	0.324358	1148.201416
5796.087896	0.082906	0.324358	1226.962646
5796.088802	0.082874	0.324358	1302.046021
5796.089695	0.082972	0.324358	1376.140381
5796.090604	0.083009	0.324358	1451.595581
5796.091523	0.082910	0.324358	1527.790039
5796.092425	0.082888	0.324358	1602.555176
5796.093320	0.082943	0.324358	1676.789307
5796.094246	0.082980	0.324358	1753.628540
5797.147643	1.063048	0.304805	510.263092
5797.148569	0.543380	0.304805	1013.433044
5797.149473	0.085408	0.304805	1090.641602
5797.150361	0.082855	0.304805	1164.217041
5797.151296	0.082936	0.304805	1241.761963
5797.152204	0.082972	0.304805	1317.100952
5797.153094	0.082987	0.304805	1390.959473
5797.154025	0.082939	0.304805	1468.176147
5797.154930	0.083002	0.304805	1543.292725
5797.155833	0.082906	0.304805	1618.157227
5797.156724	0.082969	0.304805	1692.082397
5797.157674	0.082928	0.304805	1770.864502
5798.194120	1.008816	0.326046	440.852539
5798.195083	0.562339	0.326046	982.384888
5798.196004	0.085331	0.326046	1060.974609
5798.196939	0.082866	0.326046	1138.454468
5798.197829	0.082888	0.326046	1212.224976
5798.198783	0.082888	0.326046	1291.300293
5798.199676	0.082899	0.326046	1365.329224
5798.200564	0.082892	0.326046	1438.937134
5798.201490	0.082947	0.326046	1515.745850
5798.202394	0.082954	0.326046	1590.736328
5798.203317	0.082950	0.326046	1667.299561
5798.204211	0.082936	0.326046	1741.444214
5799.257087	1.029419	0.309256	504.415283
5799.258017	0.527428	0.309256	994.923340
5799.258913	0.085291	0.309256	1071.343628
5799.259802	0.082903	0.309256	1145.044189
5799.260734	0.083016	0.309256	1222.415405
5799.261638	0.082888	0.309256	1297.346313
5799.262539	0.082998	0.309256	1372.127563
5799.263428	0.082888	0.309256	1445.815186
5799.264365	0.083035	0.309256	1523.618652
5799.265273	0.082906	0.309256	1598.897705
5799.266165	0.082881	0.309256	1672.827393
5799.267097	0.082885	0.309256	1750.075806
5800.302546	1.014269	0.323299	450.335388
5800.303453	0.613583	0.323299	1006.854980
5800.304415	0.085353	0.323299	1088.964355
5800.305321	0.082811	0.323299	1163.991333
5800.306217	0.082917	0.323299	1238.285400
5800.307140	0.082917	0.323299	1314.818237
5800.308046	0.082947	0.323299	1389.968018
5800.308945	0.082892	0.323299	1464.487793
5800.309833	0.082848	0.323299	1538.056763
5800.310774	0.082928	0.323299	1616.092407
5800.311663	0.082969	0.323299	1689.851562
5800.312567	0.082950	0.323299	1764.838745
5801.365991	1.024094	0.305195	480.300201
5801.366905	0.576519	0.305195	1007.238159
5801.367850	0.085953	0.305195	1088.464111
5801.368764	0.082939	0.305195	1164.270752
5801.369687	0.082917	0.305195	1240.803589
5801.370578	0.082921	0.305195	1314.686279
5801.371527	0.082925	0.305195	1393.381958
5801.372438	0.082866	0.305195	1468.873047
5801.373343	0.082928	0.305195	1543.923340
5801.374243	0.082954	0.305195	1618.582031
5801.375186	0.082958	0.305195	1696.811157
5801.376093	0.082943	0.305195	1772.040527
5802.413002	1.008080	0.327263	443.555084
5802.413972	0.562335	0.327263	989.020264
5802.414876	0.085562	0.327263	1066.367920
5802.415777	0.082925	0.327263	1141.083130
5802.416696	0.083038	0.327263	1217.395386
5802.417603	0.083064	0.327263	1292.734375
5802.418505	0.082954	0.327263	1367.558960
5802.419402	0.082958	0.327263	1441.972046
5802.420333	0.083005	0.327263	1519.250000
5802.421236	0.083013	0.327263	1594.210449
5802.422138	0.082987	0.327263	1669.064819
5802.423023	0.082848	0.327263	1742.385254
5803.475400	1.004030	0.307657	437.756866
5803.476299	0.639642	0.307657	1012.795288
5803.477260	0.085627	0.307657	1095.083252
5803.478175	0.082874	0.307657	1170.912476
5803.479072	0.082950	0.307657	1245.318970
5803.480005	0.082961	0.307657	1322.721924
5803.480905	0.083005	0.307657	1397.426758
5803.481800	0.082885	0.307657	1471.608398
5803.482684	0.082950	0.307657	1544.936523
5803.483629	0.082994	0.307657	1623.366211
5803.484530	0.082972	0.307657	1698.124390
5803.485434	0.082932	0.307657	1773.094971
5804.522473	1.033901	0.324616	482.831970
5804.523385	0.590013	0.324616	1020.924255
5804.524345	0.085906	0.324616	1103.393799
5804.525254	0.082841	0.324616	1178.695923
5804.526171	0.082961	0.324616	1254.771606
5804.527058	0.082983	0.324616	1328.377930
5804.527994	0.083042	0.324616	1406.105225
5804.528902	0.082936	0.324616	1481.410889
5804.529793	0.082881	0.324616	1555.257690
5804.530712	0.082965	0.324616	1631.502563
5804.531627	0.082972	0.324616	1707.422363
5804.532526	0.082983	0.324616	1782.024414
5805.584860	1.023215	0.307230	468.632660
5805.585756	0.621848	0.307230	1025.808594
5805.586705	0.086082	0.307230	1107.500000
5805.587614	0.082914	0.307230	1182.868652
5805.588517	0.082928	0.307230	1257.753052
5805.589408	0.082932	0.307230	1331.645630
5805.590350	0.082983	0.307230	1409.816040
5805.591257	0.082910	0.307230	1485.015503
5805.592155	0.082925	0.307230	1559.481934
5805.593078	0.082928	0.307230	1636.024902
5805.593987	0.082961	0.307230	1711.436890
5805.594899	0.082903	0.307230	1787.044312
5806.632947	1.018121	0.329595	487.680145
5806.633890	0.526501	0.329595	984.171021
5806.634800	0.085111	0.329595	1061.622070
5806.635701	0.082910	0.329595	1136.324097
5806.636656	0.083005	0.329595	1215.594238
5806.637559	0.082914	0.329595	1290.465454
5806.638462	0.082961	0.329595	1365.379639
5806.639351	0.082950	0.329595	1439.122559
5806.640281	0.082936	0.329595	1516.252808
5806.641189	0.082950	0.329595	1591.571777
5806.642087	0.082936	0.329595	1666.048096
5806.643016	0.082906	0.329595	1743.068237
5807.692749	1.010427	0.308696	443.577545
5807.693684	0.623225	0.308696	1026.292969
5807.694610	0.085569	0.308696	1105.529663
5807.695506	0.082837	0.308696	1179.751587
5807.696393	0.082903	0.308696	1253.286377
5807.697334	0.082972	0.308696	1331.363403
5807.698235	0.082804	0.308696	1405.969727
5807.699124	0.082943	0.308696	1479.706177
5807.700065	0.082972	0.308696	1557.783203
5807.700977	0.082972	0.308696	1633.454102
5807.701869	0.082943	0.308696	1707.439331
5807.702758	0.082991	0.308696	1781.218018
5808.742918	1.052216	0.327432	522.951172
5808.743849	0.513622	0.327432	1001.133118
5808.744752	0.085060	0.327432	1077.942139
5808.745638	0.082914	0.327432	1151.403809
5808.746585	0.083027	0.327432	1230.030762
5808.747486	0.082969	0.327432	1304.785645
5808.748378	0.082947	0.327432	1378.774170
5808.749278	0.082947	0.327432	1453.426270
5808.750213	0.083024	0.327432	1531.053467
5808.751122	0.082965	0.327432	1606.468750
5808.752021	0.083020	0.327432	1681.103760
5808.752955	0.082991	0.327432	1758.617065
5809.801669	1.000481	0.308942	434.208771
5809.802607	0.631710	0.308942	1026.752930
5809.803543	0.085466	0.308942	1106.749390
5809.804451	0.082841	0.308942	1181.968628
5809.805350	0.082947	0.308942	1256.537842
5809.806284	0.083013	0.308942	1334.071655
5809.807190	0.082936	0.308942	1409.211426
5809.808086	0.082965	0.308942	1483.548096
5809.808971	0.082932	0.308942	1556.942993
5809.809908	0.082976	0.308942	1634.691528
5809.810812	0.082939	0.308942	1709.668823
5809.811711	0.083020	0.308942	1784.303833
5810.852807	1.021388	0.329663	448.389313
5810.853788	0.536594	0.329663	974.788208
5810.854687	0.085313	0.329663	1051.484131
5810.855576	0.082863	0.329663	1125.148926
5810.856519	0.082965	0.329663	1203.385010
5810.857431	0.082928	0.329663	1279.015747
5810.858332	0.082841	0.329663	1353.655151
5810.859225	0.082958	0.329663	1427.736450
5810.860176	0.082969	0.329663	1506.639771
5810.861082	0.082896	0.329663	1581.743042
5810.861971	0.082921	0.329663	1655.459961
5810.862881	0.082961	0.329663	1730.954834
5811.909587	1.020040	0.310235	451.877838
5811.910517	0.597206	0.310235	1007.279297
5811.911426	0.086166	0.310235	1085.604004
5811.912330	0.082921	0.310235	1160.564697
5811.913256	0.083046	0.310235	1237.464966
5811.914166	0.082903	0.310235	1312.906494
5811.915054	0.082998	0.310235	1386.608765
5811.915991	0.082969	0.310235	1464.350464
5811.916894	0.082947	0.310235	1539.251465
5811.917799	0.082980	0.310235	1614.348145
5811.918687	0.082914	0.310235	1687.975586
5811.919635	0.082925	0.310235	1766.588257
5812.964301	1.004128	0.322916	440.812378
5812.965198	0.652185	0.322916	1025.822266
5812.966152	0.085884	0.322916	1107.755371
5812.967055	0.083002	0.322916	1182.705933
5812.967954	0.082954	0.322916	1257.281616
5812.968844	0.082954	0.322916	1331.110718
5812.969785	0.083002	0.322916	1409.215332
5812.970689	0.082932	0.322916	1484.186035
5812.971581	0.082939	0.322916	1558.167969
5812.972514	0.083002	0.322916	1635.608521
5812.973419	0.082983	0.322916	1710.708496
5812.974316	0.082987	0.322916	1785.147949
5814.017999	1.004026	0.311468	442.775391
5814.018895	0.650094	0.311468	1025.259521
5814.019840	0.087469	0.311468	1107.918213
5814.020738	0.082822	0.311468	1182.292603
5814.021664	0.082896	0.311468	1259.053833
5814.022555	0.082906	0.311468	1332.923462
5814.023513	0.082936	0.311468	1412.375977
5814.024413	0.082896	0.311468	1486.981934
5814.025301	0.082954	0.311468	1560.645142
5814.026222	0.082947	0.311468	1637.039062
5814.027141	0.082947	0.311468	1713.267090
5814.028048	0.082917	0.311468	1788.473267
5815.076307	1.016418	0.328632	452.306213
5815.077230	0.603820	0.328632	1009.631714
5815.078122	0.086631	0.328632	1086.906494
5815.079059	0.082921	0.328632	1164.603638
5815.079965	0.082932	0.328632	1239.740112
5815.080867	0.082943	0.328632	1314.554810
5815.081753	0.082899	0.328632	1388.003418
5815.082690	0.083005	0.328632	1465.779419
5815.083601	0.082874	0.328632	1541.277222
5815.084502	0.082947	0.328632	1616.012207
5815.085419	0.082969	0.328632	1692.094604
5815.086335	0.082932	0.328632	1768.060425
5816.124375	1.011196	0.315846	445.937561
5816.125308	0.619442	0.315846	1023.877075
5816.126232	0.085616	0.315846	1102.986694
5816.127144	0.082914	0.315846	1178.604126
5816.128043	0.082906	0.315846	1253.137085
5816.128981	0.083005	0.315846	1330.996094
5816.129897	0.083002	0.315846	1407.025635
5816.130805	0.082917	0.315846	1482.314697
5816.131691	0.082954	0.315846	1555.812012
5816.132643	0.082899	0.315846	1634.732056
5816.133550	0.082939	0.315846	1709.958130
5816.134440	0.082917	0.315846	1783.754639
5817.187295	1.017865	0.323327	456.003479
5817.188196	0.634633	0.323327	1027.807373
5817.189085	0.087319	0.323327	1105.434326
5817.190044	0.082914	0.323327	1184.948730
5817.190931	0.082870	0.323327	1258.454346
5817.191819	0.082969	0.323327	1332.130615
5817.192738	0.082943	0.323327	1408.355347
5817.193671	0.082987	0.323327	1485.782227
5817.194580	0.082958	0.323327	1561.190796
5817.195473	0.082906	0.323327	1635.226318
5817.196414	0.082892	0.323327	1713.227539
5817.197322	0.082855	0.323327	1788.460083
5818.232327	1.040980	0.317627	521.531067
5818.233256	0.517657	0.317627	1002.434814
5818.234160	0.085009	0.317627	1079.282593
5818.235049	0.082859	0.317627	1152.944092
5818.235995	0.082910	0.317627	1231.377075
5818.236901	0.082896	0.317627	1306.480347
5818.237803	0.082932	0.317627	1381.285156
5818.238692	0.082899	0.317627	1454.982544
5818.239634	0.083027	0.317627	1533.194336
5818.240530	0.082914	0.317627	1607.485107
5818.241416	0.082976	0.317627	1681.001953
5818.242361	0.082980	0.317627	1759.417847
5819.298809	1.061983	0.324330	505.503662
5819.299731	0.551400	0.324330	1013.894592
5819.300637	0.085481	0.324330	1091.340332
5819.301526	0.082885	0.324330	1165.024658
5819.302467	0.082987	0.324330	1243.115479
5819.303375	0.082855	0.324330	1318.348022
5819.304265	0.082917	0.324330	1392.144531
5819.305196	0.082987	0.324330	1469.405518
5819.306093	0.082983	0.324330	1543.841675
5819.307000	0.082936	0.324330	1619.064453
5819.307892	0.082896	0.324330	1693.007202
5819.308829	0.082877	0.324330	1770.663086
5820.339675	1.028635	0.320809	461.857239
5820.340575	0.627448	0.320809	1026.560059
5820.341488	0.087151	0.320809	1106.128784
5820.342413	0.083009	0.320809	1182.912109
5820.343321	0.082958	0.320809	1258.237793
5820.344216	0.083005	0.320809	1332.527588
5820.345148	0.083075	0.320809	1409.953491
5820.346056	0.082969	0.320809	1485.289062
5820.346960	0.082925	0.320809	1560.253052
5820.347846	0.082906	0.320809	1633.708252
5820.348793	0.083013	0.320809	1712.321289
5820.349702	0.083024	0.320809	1787.789795
5821.409794	1.068490	0.323846	527.834045
5821.410722	0.528867	0.323846	1018.622803
5821.411641	0.084968	0.323846	1096.708618
5821.412531	0.082939	0.323846	1170.524780
5821.413493	0.082906	0.323846	1250.280762
5821.414409	0.082925	0.323846	1326.239868
5821.415297	0.083005	0.323846	1399.948608
5821.416229	0.082961	0.323846	1477.268677
5821.417136	0.082991	0.323846	1552.541260
5821.418024	0.082976	0.323846	1626.223999
5821.418935	0.082954	0.323846	1701.795166
5821.419868	0.082899	0.323846	1779.140137
5822.448585	1.011467	0.321619	444.034149
5822.449554	0.552931	0.321619	979.824219
5822.450464	0.085389	0.321619	1057.528564
5822.451354	0.082837	0.321619	1131.253418
5822.452288	0.082906	0.321619	1208.688110
5822.453203	0.082903	0.321619	1284.544189
5822.454113	0.082917	0.321619	1359.999146
5822.455011	0.082991	0.321619	1434.524780
5822.455958	0.082925	0.321619	1513.054565
5822.456855	0.082906	0.321619	1587.421631
5822.457742	0.082899	0.321619	1660.953247
5822.458665	0.082936	0.321619	1737.502930
5823.519187	1.013046	0.321325	445.740082
5823.520092	0.636859	0.321325	1022.097534
5823.520981	0.087330	0.321325	1099.734131
5823.521949	0.082903	0.321325	1179.984131
5823.522858	0.082848	0.321325	1255.292847
5823.523753	0.082892	0.321325	1329.481079
5823.524690	0.082881	0.321325	1407.140503
5823.525592	0.082950	0.321325	1481.961792
5823.526485	0.082888	0.321325	1555.980957
5823.527373	0.082885	0.321325	1629.582397
5823.528308	0.082932	0.321325	1707.123901
5823.529212	0.082917	0.321325	1782.081299
5824.556997	0.999027	0.325418	434.576782
5824.557970	0.607595	0.325418	1025.766846
5824.558864	0.085587	0.325418	1102.281738
5824.559765	0.082848	0.325418	1176.927734
5824.560656	0.082928	0.325418	1250.817017
5824.561591	0.082980	0.325418	1328.403076
5824.562498	0.082994	0.325418	1403.678955
5824.563406	0.082950	0.325418	1478.997925
5824.564294	0.082943	0.325418	1552.651367
5824.565239	0.082961	0.325418	1631.049927
5824.566144	0.082976	0.325418	1706.143311
5824.567039	0.082928	0.325418	1780.364258
5825.630167	1.015023	0.323633	453.715393
5825.631070	0.628539	0.323633	1021.285950
5825.632005	0.086960	0.323633	1102.593994
5825.632912	0.082888	0.323633	1177.773560
5825.633813	0.082885	0.323633	1252.452515
5825.634695	0.082899	0.323633	1325.569580
5825.635648	0.082899	0.323633	1404.572510
5825.636543	0.082910	0.323633	1478.777100
5825.637458	0.082921	0.323633	1554.649902
5825.638357	0.082903	0.323633	1629.179565
5825.639309	0.082943	0.323633	1708.141357
5825.640215	0.082965	0.323633	1783.307739
5826.665949	1.026405	0.326344	461.882233
5826.666859	0.609899	0.326344	1016.890015
5826.667747	0.086715	0.326344	1093.893066
5826.668713	0.082833	0.326344	1173.910034
5826.669619	0.082848	0.326344	1248.970215
5826.670511	0.082848	0.326344	1322.870605
5826.671434	0.082914	0.326344	1399.400024
5826.672337	0.082917	0.326344	1474.274536
5826.673232	0.082928	0.326344	1548.495483
5826.674115	0.082841	0.326344	1621.643677
5826.675060	0.082903	0.326344	1699.986816
5826.675963	0.082906	0.326344	1774.851318
5827.739094	1.017968	0.320136	458.085419
5827.739998	0.630209	0.320136	1027.794067
5827.740930	0.086997	0.320136	1108.875366
5827.741836	0.082877	0.320136	1183.962158
5827.742730	0.082870	0.320136	1258.047852
5827.743612	0.082885	0.320136	1331.151978
5827.744545	0.082954	0.320136	1408.548096
5827.745453	0.082848	0.320136	1483.773926
5827.746354	0.082965	0.320136	1558.525513
5827.747242	0.082950	0.320136	1632.185547
5827.748197	0.082925	0.320136	1711.378784
5827.749105	0.082885	0.320136	1786.637939
5828.775386	1.024951	0.326912	457.128235
5828.776300	0.612601	0.326912	1017.045837
5828.777189	0.086865	0.326912	1094.269043
5828.778133	0.082972	0.326912	1172.594971
5828.779034	0.082950	0.326912	1247.333252
5828.779930	0.082958	0.326912	1321.663452
5828.780858	0.083016	0.326912	1398.702637
5828.781764	0.083009	0.326912	1473.908813
5828.782665	0.082885	0.326912	1548.587769
5828.783553	0.082943	0.326912	1622.241211
5828.784502	0.083009	0.326912	1701.016846
5828.785401	0.082965	0.326912	1775.602417
5829.847494	1.001803	0.323440	434.782532
5829.848453	0.579423	0.323440	990.448792
5829.849361	0.085481	0.323440	1068.065552
5829.850284	0.082877	0.323440	1144.561157
5829.851174	0.082947	0.323440	1218.383789
5829.852136	0.082961	0.323440	1298.192627
5829.853036	0.082874	0.323440	1372.778809
5829.853926	0.082932	0.323440	1446.588379
5829.854856	0.082950	0.323440	1523.732300
5829.855776	0.082822	0.323440	1599.928833
5829.856667	0.082914	0.323440	1673.805054
5829.857554	0.082917	0.323440	1747.352905
5830.885346	1.027123	0.326823	466.313782
5830.886255	0.615718	0.326823	1026.001221
5830.887141	0.086851	0.326823	1102.950806
5830.888079	0.082921	0.326823	1180.730835
5830.888995	0.082892	0.326823	1256.659790
5830.889899	0.082947	0.326823	1331.643677
5830.890791	0.082896	0.326823	1405.586426
5830.891737	0.082870	0.326823	1483.981323
5830.892643	0.082936	0.326823	1559.121094
5830.893528	0.082888	0.326823	1632.477173
5830.894475	0.083002	0.326823	1711.079834
5830.895377	0.082906	0.326823	1785.861450
5831.956949	1.026907	0.321216	461.081116
5831.957917	0.550122	0.321216	993.599243
5831.958830	0.085302	0.321216	1071.479492
5831.959720	0.082906	0.321216	1145.266235
5831.960653	0.082947	0.321216	1222.655518
5831.961568	0.083002	0.321216	1298.602051
5831.962463	0.083016	0.321216	1372.901733
5831.963358	0.082947	0.321216	1447.139160
5831.964308	0.083027	0.321216	1526.015137
5831.965208	0.082939	0.321216	1600.660645
5831.966096	0.082910	0.321216	1674.284912
5831.967000	0.082980	0.321216	1749.298584
5832.995294	1.023343	0.328991	465.621277
5832.996189	0.629564	0.328991	1029.081299
5832.997119	0.086906	0.328991	1109.903442
5832.998029	0.082903	0.328991	1185.344971
5832.998927	0.082855	0.328991	1259.749023
5832.999817	0.082826	0.328991	1333.464111
5833.000772	0.082881	0.328991	1412.615356
5833.001672	0.082855	0.328991	1487.185059
5833.002577	0.082877	0.328991	1562.188965
5833.003461	0.082881	0.328991	1635.455688
5833.004405	0.082914	0.328991	1713.726318
5833.005307	0.082859	0.328991	1788.465088
5834.065867	1.011218	0.322984	444.936066
5834.066767	0.642872	0.322984	1023.521118
5834.067711	0.085990	0.322984	1104.695679
5834.068635	0.082885	0.322984	1181.281006
5834.069538	0.082936	0.322984	1256.171997
5834.070426	0.082917	0.322984	1329.802734
5834.071379	0.082950	0.322984	1408.854492
5834.072282	0.082983	0.322984	1483.788452
5834.073176	0.082961	0.322984	1557.955933
5834.074127	0.082950	0.322984	1636.841797
5834.075035	0.082947	0.322984	1712.157471
5834.075926	0.082965	0.322984	1786.079346
5835.104742	1.046147	0.329941	485.412415
5835.105654	0.592690	0.329941	1025.946045
5835.106542	0.086396	0.329941	1102.666138
5835.107488	0.082925	0.329941	1181.113037
5835.108391	0.082903	0.329941	1255.974243
5835.109288	0.082932	0.329941	1330.364380
5835.110214	0.082994	0.329941	1407.217163
5835.111124	0.082969	0.329941	1482.718750
5835.112024	0.082888	0.329941	1557.318115
5835.112916	0.082961	0.329941	1631.319702
5835.113869	0.082983	0.329941	1710.402832
5835.114767	0.082943	0.329941	1784.885742
5836.173789	1.023680	0.322416	457.585175
5836.174706	0.605024	0.322416	1012.392578
5836.175614	0.086184	0.322416	1090.647705
5836.176501	0.082899	0.322416	1164.179321
5836.177447	0.082958	0.322416	1242.657349
5836.178360	0.082914	0.322416	1318.357666
5836.179249	0.082877	0.322416	1392.035522
5836.180189	0.082917	0.322416	1469.977905
5836.181092	0.082991	0.322416	1544.918579
5836.181990	0.082914	0.322416	1619.375244
5836.182877	0.082870	0.322416	1692.880859
5836.183825	0.082958	0.322416	1771.524780
5837.215705	1.015942	0.331911	457.174103
5837.216598	0.631996	0.331911	1021.546387
5837.217552	0.085704	0.331911	1103.308350
5837.218464	0.082932	0.331911	1178.942505
5837.219355	0.082976	0.331911	1252.874146
5837.220268	0.083049	0.331911	1328.698120
5837.221194	0.082965	0.331911	1405.523804
5837.222102	0.082906	0.331911	1480.802856
5837.222992	0.082928	0.331911	1554.609131
5837.223932	0.082980	0.331911	1632.610107
5837.224838	0.082910	0.331911	1707.726685
5837.225737	0.082914	0.331911	1782.266235
5838.283264	1.036604	0.323440	512.082397
5838.284187	0.529797	0.323440	1001.085388
5838.285089	0.085316	0.323440	1078.040527
5838.285978	0.082906	0.323440	1151.744385
5838.286912	0.082991	0.323440	1229.257690
5838.287816	0.082965	0.323440	1304.258179
5838.288723	0.082998	0.323440	1379.537354
5838.289616	0.082994	0.323440	1453.651367
5838.290553	0.083009	0.323440	1531.430786
5838.291466	0.082925	0.323440	1607.141113
5838.292360	0.083002	0.323440	1681.344604
5838.293294	0.083057	0.323440	1758.919556
5839.324627	1.019165	0.326171	456.585937
5839.325531	0.627458	0.326171	1023.808350
5839.326470	0.087012	0.326171	1105.512329
5839.327381	0.082961	0.326171	1181.090210
5839.328283	0.082950	0.326171	1255.911499
5839.329175	0.082954	0.326171	1329.906494
5839.330124	0.082980	0.326171	1408.654297
5839.331028	0.082910	0.326171	1483.605103
5839.331928	0.082991	0.326171	1558.296753
5839.332815	0.082936	0.326171	1631.860840
5839.333749	0.082972	0.326171	1709.357056
5839.334654	0.082965	0.326171	1784.440430
